[SXSFileHeader]
Idn=File from SXSC (orig.meas.data) 2.0
StartTime=Sun Oct 20 13:04:17 2002
EndTime=Sun Oct 20 15:26:14 2002
NoofCols=3
DataPoints=260
ColID1=Energy [eV]
ColID2=Counts
ColID3=Position
Greating=600
SampleVacuum=1.4e-06
IXRay=0.900000
UXRay=3.500000
UFilament=2.000000
IFilament=4.300000
UWehnelt=0.500000
UCEM=1.700000
CEMId=C473-001
UPhoto=107.000000
Gain=1.500000
PhotoId=CaesiumIodid
Operator=ebf
SampleID=MgAlZn Al50
StartPos=32120
EndPos=40440
Delta=32
NoofSpectra=3
Timebase=10.000000
NoofMeas=1
TotalMeas=4
FileName=C:\sxs\esther\wien0502\MAZ5002.cnt
@EOH
      55.1699            833  32120
      55.0648            850  32152
      54.9601            857  32184
      54.8557            838  32216
      54.7517            780  32248
      54.6479            803  32280
      54.5445            814  32312
      54.4413            807  32344
      54.3385            734  32376
       54.236            718  32408
      54.1338            735  32440
      54.0319            752  32472
      53.9303            716  32504
       53.829            748  32536
       53.728            712  32568
      53.6273            703  32600
      53.5269            730  32632
      53.4268            668  32664
       53.327            694  32696
      53.2275            695  32728
      53.1283            680  32760
      53.0294            700  32792
      52.9308            791  32824
      52.8325            753  32856
      52.7344            744  32888
      52.6367            740  32920
      52.5392            743  32952
       52.442            810  32984
      52.3452            767  33016
      52.2486            766  33048
      52.1522            775  33080
      52.0562            745  33112
      51.9605            795  33144
       51.865            757  33176
      51.7698            818  33208
      51.6749            803  33240
      51.5802            815  33272
      51.4859            791  33304
      51.3918            751  33336
       51.298            782  33368
      51.2044            749  33400
      51.1112            745  33432
      51.0182            767  33464
      50.9254            778  33496
       50.833            780  33528
      50.7408            758  33560
      50.6488            771  33592
      50.5572            823  33624
      50.4658            787  33656
      50.3746            748  33688
      50.2837            852  33720
      50.1931            827  33752
      50.1028            857  33784
      50.0127            866  33816
      49.9228            962  33848
      49.8332            861  33880
      49.7439            993  33912
      49.6548           1058  33944
       49.566            957  33976
      49.4775           1041  34008
      49.3891           1061  34040
      49.3011           1084  34072
      49.2133           1085  34104
      49.1257           1067  34136
      49.0384           1086  34168
      48.9513           1088  34200
      48.8645           1038  34232
      48.7779           1018  34264
      48.6915           1009  34296
      48.6055           1038  34328
      48.5196            988  34360
       48.434           1005  34392
      48.3486           1059  34424
      48.2635            997  34456
      48.1786           1025  34488
      48.0939           1035  34520
      48.0095           1061  34552
      47.9253           1052  34584
      47.8414           1036  34616
      47.7577           1086  34648
      47.6742           1052  34680
      47.5909           1034  34712
      47.5079           1072  34744
      47.4251            993  34776
      47.3426           1079  34808
      47.2603           1065  34840
      47.1782           1081  34872
      47.0963           1113  34904
      47.0146           1018  34936
      46.9332           1174  34968
       46.852           1160  35000
       46.771           1190  35032
      46.6903           1200  35064
      46.6098           1226  35096
      46.5294           1287  35128
      46.4494           1285  35160
      46.3695           1370  35192
      46.2898           1398  35224
      46.2104           1329  35256
      46.1312           1406  35288
      46.0522           1385  35320
      45.9734           1382  35352
      45.8948           1396  35384
      45.8165           1362  35416
      45.7383           1308  35448
      45.6604           1289  35480
      45.5827           1253  35512
      45.5052           1274  35544
      45.4279           1265  35576
      45.3508           1213  35608
      45.2739           1271  35640
      45.1972           1188  35672
      45.1207           1220  35704
      45.0445           1196  35736
      44.9684           1158  35768
      44.8926           1114  35800
      44.8169           1166  35832
      44.7415           1120  35864
      44.6662           1122  35896
      44.5912           1059  35928
      44.5163           1115  35960
      44.4417           1123  35992
      44.3673           1088  36024
       44.293           1069  36056
       44.219           1112  36088
      44.1451           1080  36120
      44.0715           1065  36152
       43.998           1008  36184
      43.9248           1053  36216
      43.8517           1084  36248
      43.7788           1058  36280
      43.7061           1053  36312
      43.6336            966  36344
      43.5613           1015  36376
      43.4892           1036  36408
      43.4173           1113  36440
      43.3456           1005  36472
      43.2741            997  36504
      43.2027           1089  36536
      43.1315           1059  36568
      43.0606           1035  36600
      42.9898           1072  36632
      42.9192           1019  36664
      42.8488            978  36696
      42.7785            995  36728
      42.7085           1044  36760
      42.6386            993  36792
      42.5689           1044  36824
      42.4994           1044  36856
      42.4301            944  36888
      42.3609           1094  36920
       42.292           1013  36952
      42.2232           1022  36984
      42.1546            983  37016
      42.0862           1008  37048
      42.0179           1044  37080
      41.9498           1019  37112
      41.8819           1088  37144
      41.8142           1047  37176
      41.7466            998  37208
      41.6793           1104  37240
      41.6121           1055  37272
       41.545           1092  37304
      41.4782           1022  37336
      41.4115           1106  37368
       41.345           1052  37400
      41.2786           1037  37432
      41.2125           1077  37464
      41.1465           1082  37496
      41.0806           1115  37528
      41.0149           1107  37560
      40.9494           1121  37592
      40.8841           1203  37624
      40.8189           1137  37656
      40.7539           1176  37688
      40.6891           1137  37720
      40.6244           1194  37752
      40.5599           1238  37784
      40.4956           1293  37816
      40.4314           1553  37848
      40.3674           1820  37880
      40.3035           2134  37912
      40.2398           1914  37944
      40.1763           1528  37976
      40.1129           1512  38008
      40.0497           1399  38040
      39.9866           1408  38072
      39.9237           1401  38104
       39.861           1510  38136
      39.7984           1626  38168
       39.736           1715  38200
      39.6737           2057  38232
      39.6116           2662  38264
      39.5496           2776  38296
      39.4878           2276  38328
      39.4262           1856  38360
      39.3647           1521  38392
      39.3033           1427  38424
      39.2421           1293  38456
      39.1811           1293  38488
      39.1202           1273  38520
      39.0595           1175  38552
      38.9989           1208  38584
      38.9384           1166  38616
      38.8781           1112  38648
       38.818           1108  38680
       38.758           1082  38712
      38.6982           1118  38744
      38.6385           1053  38776
      38.5789           1045  38808
      38.5195           1008  38840
      38.4603            991  38872
      38.4012           1006  38904
      38.3422            932  38936
      38.2834            954  38968
      38.2247            962  39000
      38.1662            885  39032
      38.1078            916  39064
      38.0496            903  39096
      37.9915            954  39128
      37.9335            915  39160
      37.8757            966  39192
       37.818            926  39224
      37.7605            906  39256
      37.7031            879  39288
      37.6458            873  39320
      37.5887            856  39352
      37.5317            911  39384
      37.4749            878  39416
      37.4182            865  39448
      37.3616            901  39480
      37.3052            891  39512
      37.2489            894  39544
      37.1927            864  39576
      37.1367            863  39608
      37.0808            855  39640
       37.025            784  39672
      36.9694            877  39704
      36.9139            821  39736
      36.8586            836  39768
      36.8034            843  39800
      36.7483            798  39832
      36.6933            790  39864
      36.6385            803  39896
      36.5838            765  39928
      36.5293            849  39960
      36.4748            877  39992
      36.4205            851  40024
      36.3663            930  40056
      36.3123            950  40088
      36.2584           1031  40120
      36.2046           1098  40152
      36.1509           1038  40184
      36.0974           1049  40216
       36.044            993  40248
      35.9907           1023  40280
      35.9376            990  40312
      35.8846            985  40344
      35.8317            992  40376
      35.7789           1001  40408
[SXSFileHeader]
Idn=File from SXSC (orig.meas.data) 2.0
StartTime=Sun Oct 20 15:29:47 2002
EndTime=Sun Oct 20 17:51:17 2002
NoofCols=3
DataPoints=260
ColID1=Energy [eV]
ColID2=Counts
ColID3=Position
Greating=600
SampleVacuum=1.4e-06
IXRay=0.900000
UXRay=3.500000
UFilament=2.000000
IFilament=4.300000
UWehnelt=0.500000
UCEM=1.700000
CEMId=C473-001
UPhoto=107.000000
Gain=1.500000
PhotoId=CaesiumIodid
Operator=ebf
SampleID=MgAlZn Al50
StartPos=32120
EndPos=40440
Delta=32
NoofSpectra=3
Timebase=10.000000
NoofMeas=2
TotalMeas=4
FileName=C:\sxs\esther\wien0502\MAZ5002.cnt
@EOH
      55.1699           1235  32120
      55.0648           1270  32152
      54.9601           1228  32184
      54.8557           1280  32216
      54.7517           1213  32248
      54.6479           1179  32280
      54.5445           1154  32312
      54.4413           1152  32344
      54.3385           1171  32376
       54.236           1166  32408
      54.1338           1187  32440
      54.0319           1101  32472
      53.9303           1154  32504
       53.829           1117  32536
       53.728           1085  32568
      53.6273           1140  32600
      53.5269           1063  32632
      53.4268           1119  32664
       53.327           1142  32696
      53.2275           1066  32728
      53.1283           1089  32760
      53.0294           1102  32792
      52.9308           1147  32824
      52.8325           1115  32856
      52.7344           1070  32888
      52.6367           1130  32920
      52.5392           1100  32952
       52.442           1112  32984
      52.3452           1123  33016
      52.2486           1064  33048
      52.1522           1081  33080
      52.0562           1103  33112
      51.9605           1082  33144
       51.865           1060  33176
      51.7698           1089  33208
      51.6749           1120  33240
      51.5802           1153  33272
      51.4859           1053  33304
      51.3918           1053  33336
       51.298           1129  33368
      51.2044           1081  33400
      51.1112           1083  33432
      51.0182           1109  33464
      50.9254           1072  33496
       50.833           1066  33528
      50.7408           1045  33560
      50.6488           1069  33592
      50.5572           1089  33624
      50.4658           1102  33656
      50.3746           1133  33688
      50.2837           1058  33720
      50.1931           1137  33752
      50.1028           1083  33784
      50.0127           1134  33816
      49.9228           1196  33848
      49.8332           1140  33880
      49.7439           1155  33912
      49.6548           1149  33944
       49.566           1209  33976
      49.4775           1208  34008
      49.3891           1180  34040
      49.3011           1161  34072
      49.2133           1175  34104
      49.1257           1160  34136
      49.0384           1159  34168
      48.9513           1158  34200
      48.8645           1133  34232
      48.7779           1153  34264
      48.6915           1136  34296
      48.6055           1205  34328
      48.5196           1145  34360
       48.434           1212  34392
      48.3486           1111  34424
      48.2635           1180  34456
      48.1786           1213  34488
      48.0939           1105  34520
      48.0095           1134  34552
      47.9253           1121  34584
      47.8414           1220  34616
      47.7577           1139  34648
      47.6742           1147  34680
      47.5909           1190  34712
      47.5079           1134  34744
      47.4251           1164  34776
      47.3426           1161  34808
      47.2603           1217  34840
      47.1782           1142  34872
      47.0963           1164  34904
      47.0146           1211  34936
      46.9332           1206  34968
       46.852           1201  35000
       46.771           1300  35032
      46.6903           1242  35064
      46.6098           1311  35096
      46.5294           1348  35128
      46.4494           1355  35160
      46.3695           1378  35192
      46.2898           1420  35224
      46.2104           1396  35256
      46.1312           1355  35288
      46.0522           1484  35320
      45.9734           1384  35352
      45.8948           1419  35384
      45.8165           1465  35416
      45.7383           1349  35448
      45.6604           1315  35480
      45.5827           1222  35512
      45.5052           1304  35544
      45.4279           1292  35576
      45.3508           1276  35608
      45.2739           1246  35640
      45.1972           1248  35672
      45.1207           1218  35704
      45.0445           1287  35736
      44.9684           1270  35768
      44.8926           1220  35800
      44.8169           1240  35832
      44.7415           1188  35864
      44.6662           1136  35896
      44.5912           1198  35928
      44.5163           1171  35960
      44.4417           1139  35992
      44.3673           1157  36024
       44.293           1183  36056
       44.219           1156  36088
      44.1451           1155  36120
      44.0715           1113  36152
       43.998           1182  36184
      43.9248           1163  36216
      43.8517           1114  36248
      43.7788           1050  36280
      43.7061           1174  36312
      43.6336           1156  36344
      43.5613           1138  36376
      43.4892           1134  36408
      43.4173           1169  36440
      43.3456           1106  36472
      43.2741           1075  36504
      43.2027           1029  36536
      43.1315           1013  36568
      43.0606           1064  36600
      42.9898           1032  36632
      42.9192           1053  36664
      42.8488           1074  36696
      42.7785           1117  36728
      42.7085           1065  36760
      42.6386           1104  36792
      42.5689           1082  36824
      42.4994           1042  36856
      42.4301           1127  36888
      42.3609           1095  36920
       42.292           1060  36952
      42.2232           1054  36984
      42.1546           1054  37016
      42.0862           1059  37048
      42.0179           1082  37080
      41.9498           1048  37112
      41.8819           1091  37144
      41.8142           1086  37176
      41.7466           1031  37208
      41.6793           1040  37240
      41.6121           1093  37272
       41.545           1078  37304
      41.4782           1106  37336
      41.4115           1075  37368
       41.345           1111  37400
      41.2786           1084  37432
      41.2125           1131  37464
      41.1465           1151  37496
      41.0806           1060  37528
      41.0149           1178  37560
      40.9494           1065  37592
      40.8841           1154  37624
      40.8189           1081  37656
      40.7539           1210  37688
      40.6891           1171  37720
      40.6244           1244  37752
      40.5599           1212  37784
      40.4956           1257  37816
      40.4314           1493  37848
      40.3674           1686  37880
      40.3035           1854  37912
      40.2398           1614  37944
      40.1763           1436  37976
      40.1129           1288  38008
      40.0497           1331  38040
      39.9866           1262  38072
      39.9237           1367  38104
       39.861           1380  38136
      39.7984           1461  38168
       39.736           1602  38200
      39.6737           1790  38232
      39.6116           2211  38264
      39.5496           2247  38296
      39.4878           2062  38328
      39.4262           1627  38360
      39.3647           1465  38392
      39.3033           1361  38424
      39.2421           1223  38456
      39.1811           1240  38488
      39.1202           1227  38520
      39.0595           1187  38552
      38.9989           1164  38584
      38.9384           1130  38616
      38.8781           1160  38648
       38.818           1096  38680
       38.758           1078  38712
      38.6982           1013  38744
      38.6385           1006  38776
      38.5789           1008  38808
      38.5195            983  38840
      38.4603           1019  38872
      38.4012            982  38904
      38.3422            899  38936
      38.2834            919  38968
      38.2247            936  39000
      38.1662            900  39032
      38.1078            954  39064
      38.0496            883  39096
      37.9915            940  39128
      37.9335            935  39160
      37.8757            907  39192
       37.818            897  39224
      37.7605            878  39256
      37.7031            812  39288
      37.6458            844  39320
      37.5887            932  39352
      37.5317            888  39384
      37.4749            880  39416
      37.4182            899  39448
      37.3616            936  39480
      37.3052            910  39512
      37.2489            859  39544
      37.1927            912  39576
      37.1367            853  39608
      37.0808            854  39640
       37.025            827  39672
      36.9694            809  39704
      36.9139            839  39736
      36.8586            835  39768
      36.8034            831  39800
      36.7483            850  39832
      36.6933            804  39864
      36.6385            824  39896
      36.5838            786  39928
      36.5293            810  39960
      36.4748            824  39992
      36.4205            839  40024
      36.3663            867  40056
      36.3123            847  40088
      36.2584            963  40120
      36.2046            975  40152
      36.1509            911  40184
      36.0974            889  40216
       36.044            937  40248
      35.9907            965  40280
      35.9376            957  40312
      35.8846            967  40344
      35.8317            913  40376
      35.7789            919  40408
[SXSFileHeader]
Idn=File from SXSC (orig.meas.data) 2.0
StartTime=Sun Oct 20 17:54:51 2002
EndTime=Sun Oct 20 20:17:33 2002
NoofCols=3
DataPoints=260
ColID1=Energy [eV]
ColID2=Counts
ColID3=Position
Greating=600
SampleVacuum=1.4e-06
IXRay=0.900000
UXRay=3.500000
UFilament=2.000000
IFilament=4.300000
UWehnelt=0.500000
UCEM=1.700000
CEMId=C473-001
UPhoto=107.000000
Gain=1.500000
PhotoId=CaesiumIodid
Operator=ebf
SampleID=MgAlZn Al50
StartPos=32120
EndPos=40440
Delta=32
NoofSpectra=3
Timebase=10.000000
NoofMeas=3
TotalMeas=4
FileName=C:\sxs\esther\wien0502\MAZ5002.cnt
@EOH
      55.1699           1186  32120
      55.0648           1131  32152
      54.9601           1221  32184
      54.8557           1171  32216
      54.7517           1202  32248
      54.6479           1173  32280
      54.5445           1136  32312
      54.4413           1180  32344
      54.3385           1122  32376
       54.236           1101  32408
      54.1338           1164  32440
      54.0319           1077  32472
      53.9303           1143  32504
       53.829           1156  32536
       53.728           1073  32568
      53.6273           1099  32600
      53.5269           1065  32632
      53.4268           1108  32664
       53.327           1092  32696
      53.2275           1059  32728
      53.1283           1088  32760
      53.0294           1051  32792
      52.9308           1060  32824
      52.8325           1105  32856
      52.7344           1023  32888
      52.6367           1079  32920
      52.5392           1020  32952
       52.442           1055  32984
      52.3452           1085  33016
      52.2486           1064  33048
      52.1522           1103  33080
      52.0562           1055  33112
      51.9605           1066  33144
       51.865           1086  33176
      51.7698           1155  33208
      51.6749           1021  33240
      51.5802           1062  33272
      51.4859           1120  33304
      51.3918           1074  33336
       51.298           1073  33368
      51.2044            981  33400
      51.1112           1098  33432
      51.0182           1043  33464
      50.9254           1135  33496
       50.833           1074  33528
      50.7408           1109  33560
      50.6488           1105  33592
      50.5572           1032  33624
      50.4658           1022  33656
      50.3746           1085  33688
      50.2837           1097  33720
      50.1931           1089  33752
      50.1028           1059  33784
      50.0127           1084  33816
      49.9228           1100  33848
      49.8332           1082  33880
      49.7439           1104  33912
      49.6548           1052  33944
       49.566           1118  33976
      49.4775           1137  34008
      49.3891           1169  34040
      49.3011           1062  34072
      49.2133           1155  34104
      49.1257           1154  34136
      49.0384           1128  34168
      48.9513           1187  34200
      48.8645           1143  34232
      48.7779           1114  34264
      48.6915           1095  34296
      48.6055           1152  34328
      48.5196           1076  34360
       48.434           1057  34392
      48.3486           1117  34424
      48.2635           1105  34456
      48.1786           1136  34488
      48.0939           1069  34520
      48.0095           1040  34552
      47.9253           1162  34584
      47.8414           1113  34616
      47.7577           1090  34648
      47.6742           1111  34680
      47.5909           1105  34712
      47.5079           1125  34744
      47.4251           1128  34776
      47.3426           1109  34808
      47.2603           1071  34840
      47.1782           1144  34872
      47.0963           1096  34904
      47.0146           1200  34936
      46.9332           1157  34968
       46.852           1229  35000
       46.771           1209  35032
      46.6903           1182  35064
      46.6098           1214  35096
      46.5294           1280  35128
      46.4494           1225  35160
      46.3695           1262  35192
      46.2898           1285  35224
      46.2104           1255  35256
      46.1312           1226  35288
      46.0522           1285  35320
      45.9734           1265  35352
      45.8948           1291  35384
      45.8165           1301  35416
      45.7383           1186  35448
      45.6604           1267  35480
      45.5827           1228  35512
      45.5052           1175  35544
      45.4279           1253  35576
      45.3508           1184  35608
      45.2739           1172  35640
      45.1972           1162  35672
      45.1207           1158  35704
      45.0445           1163  35736
      44.9684           1172  35768
      44.8926           1162  35800
      44.8169           1096  35832
      44.7415           1171  35864
      44.6662           1185  35896
      44.5912           1097  35928
      44.5163           1171  35960
      44.4417           1135  35992
      44.3673           1091  36024
       44.293           1141  36056
       44.219           1148  36088
      44.1451           1126  36120
      44.0715           1093  36152
       43.998           1078  36184
      43.9248           1171  36216
      43.8517           1074  36248
      43.7788           1123  36280
      43.7061           1059  36312
      43.6336           1099  36344
      43.5613           1089  36376
      43.4892           1124  36408
      43.4173           1123  36440
      43.3456           1075  36472
      43.2741           1111  36504
      43.2027           1064  36536
      43.1315           1022  36568
      43.0606           1040  36600
      42.9898           1072  36632
      42.9192           1003  36664
      42.8488           1029  36696
      42.7785            957  36728
      42.7085           1093  36760
      42.6386           1047  36792
      42.5689           1050  36824
      42.4994           1011  36856
      42.4301           1014  36888
      42.3609           1066  36920
       42.292           1091  36952
      42.2232           1050  36984
      42.1546           1019  37016
      42.0862           1066  37048
      42.0179           1043  37080
      41.9498           1032  37112
      41.8819           1068  37144
      41.8142           1156  37176
      41.7466           1079  37208
      41.6793           1064  37240
      41.6121           1027  37272
       41.545           1081  37304
      41.4782           1116  37336
      41.4115           1064  37368
       41.345           1085  37400
      41.2786           1106  37432
      41.2125           1137  37464
      41.1465           1141  37496
      41.0806           1091  37528
      41.0149           1143  37560
      40.9494           1166  37592
      40.8841           1062  37624
      40.8189           1125  37656
      40.7539           1136  37688
      40.6891           1116  37720
      40.6244           1136  37752
      40.5599           1161  37784
      40.4956           1309  37816
      40.4314           1297  37848
      40.3674           1534  37880
      40.3035           1600  37912
      40.2398           1426  37944
      40.1763           1342  37976
      40.1129           1332  38008
      40.0497           1198  38040
      39.9866           1226  38072
      39.9237           1191  38104
       39.861           1302  38136
      39.7984           1304  38168
       39.736           1435  38200
      39.6737           1550  38232
      39.6116           1881  38264
      39.5496           1841  38296
      39.4878           1633  38328
      39.4262           1482  38360
      39.3647           1339  38392
      39.3033           1231  38424
      39.2421           1274  38456
      39.1811           1260  38488
      39.1202           1233  38520
      39.0595           1194  38552
      38.9989           1140  38584
      38.9384           1179  38616
      38.8781           1129  38648
       38.818           1099  38680
       38.758           1074  38712
      38.6982           1143  38744
      38.6385            995  38776
      38.5789            952  38808
      38.5195            994  38840
      38.4603           1016  38872
      38.4012            998  38904
      38.3422            984  38936
      38.2834            998  38968
      38.2247            926  39000
      38.1662            954  39032
      38.1078            945  39064
      38.0496            930  39096
      37.9915            916  39128
      37.9335            920  39160
      37.8757            940  39192
       37.818            925  39224
      37.7605            905  39256
      37.7031            888  39288
      37.6458            874  39320
      37.5887            899  39352
      37.5317            872  39384
      37.4749            868  39416
      37.4182            926  39448
      37.3616            830  39480
      37.3052            853  39512
      37.2489            859  39544
      37.1927            821  39576
      37.1367            863  39608
      37.0808            841  39640
       37.025            872  39672
      36.9694            870  39704
      36.9139            826  39736
      36.8586            871  39768
      36.8034            795  39800
      36.7483            835  39832
      36.6933            776  39864
      36.6385            856  39896
      36.5838            811  39928
      36.5293            845  39960
      36.4748            845  39992
      36.4205            870  40024
      36.3663            830  40056
      36.3123            821  40088
      36.2584            917  40120
      36.2046            862  40152
      36.1509            877  40184
      36.0974            916  40216
       36.044            921  40248
      35.9907            873  40280
      35.9376            888  40312
      35.8846            861  40344
      35.8317            833  40376
      35.7789            863  40408
[SXSFileHeader]
Idn=File from SXSC (orig.meas.data) 2.0
StartTime=Sun Oct 20 20:21:08 2002
EndTime=Sun Oct 20 22:44:51 2002
NoofCols=3
DataPoints=260
ColID1=Energy [eV]
ColID2=Counts
ColID3=Position
Greating=600
SampleVacuum=1.4e-06
IXRay=0.900000
UXRay=3.500000
UFilament=2.000000
IFilament=4.300000
UWehnelt=0.500000
UCEM=1.700000
CEMId=C473-001
UPhoto=107.000000
Gain=1.500000
PhotoId=CaesiumIodid
Operator=ebf
SampleID=MgAlZn Al50
StartPos=32120
EndPos=40440
Delta=32
NoofSpectra=3
Timebase=10.000000
NoofMeas=4
TotalMeas=4
FileName=C:\sxs\esther\wien0502\MAZ5002.cnt
@EOH
      55.1699           1228  32120
      55.0648           1150  32152
      54.9601           1193  32184
      54.8557           1144  32216
      54.7517           1126  32248
      54.6479           1129  32280
      54.5445           1152  32312
      54.4413           1084  32344
      54.3385           1123  32376
       54.236           1140  32408
      54.1338           1125  32440
      54.0319           1140  32472
      53.9303           1147  32504
       53.829           1094  32536
       53.728           1096  32568
      53.6273           1131  32600
      53.5269           1091  32632
      53.4268           1088  32664
       53.327           1100  32696
      53.2275           1087  32728
      53.1283           1042  32760
      53.0294           1044  32792
      52.9308           1091  32824
      52.8325           1098  32856
      52.7344           1091  32888
      52.6367           1061  32920
      52.5392           1092  32952
       52.442           1101  32984
      52.3452           1022  33016
      52.2486           1108  33048
      52.1522           1041  33080
      52.0562           1049  33112
      51.9605           1059  33144
       51.865           1030  33176
      51.7698           1119  33208
      51.6749           1057  33240
      51.5802           1076  33272
      51.4859           1108  33304
      51.3918           1061  33336
       51.298           1051  33368
      51.2044           1069  33400
      51.1112           1039  33432
      51.0182           1076  33464
      50.9254           1063  33496
       50.833           1005  33528
      50.7408           1038  33560
      50.6488           1000  33592
      50.5572            986  33624
      50.4658           1053  33656
      50.3746           1069  33688
      50.2837           1040  33720
      50.1931           1090  33752
      50.1028           1042  33784
      50.0127           1060  33816
      49.9228           1075  33848
      49.8332           1037  33880
      49.7439           1125  33912
      49.6548           1042  33944
       49.566           1064  33976
      49.4775           1080  34008
      49.3891           1064  34040
      49.3011           1066  34072
      49.2133           1053  34104
      49.1257           1119  34136
      49.0384           1082  34168
      48.9513           1090  34200
      48.8645           1028  34232
      48.7779           1058  34264
      48.6915           1011  34296
      48.6055           1095  34328
      48.5196            988  34360
       48.434           1034  34392
      48.3486           1072  34424
      48.2635           1116  34456
      48.1786           1011  34488
      48.0939           1054  34520
      48.0095           1029  34552
      47.9253           1055  34584
      47.8414           1031  34616
      47.7577           1050  34648
      47.6742           1077  34680
      47.5909            989  34712
      47.5079           1016  34744
      47.4251           1084  34776
      47.3426            991  34808
      47.2603           1027  34840
      47.1782           1079  34872
      47.0963           1069  34904
      47.0146           1073  34936
      46.9332           1071  34968
       46.852           1099  35000
       46.771           1097  35032
      46.6903           1063  35064
      46.6098           1102  35096
      46.5294           1159  35128
      46.4494           1060  35160
      46.3695           1113  35192
      46.2898           1068  35224
      46.2104           1124  35256
      46.1312           1155  35288
      46.0522           1140  35320
      45.9734           1130  35352
      45.8948           1074  35384
      45.8165           1089  35416
      45.7383           1108  35448
      45.6604           1113  35480
      45.5827           1056  35512
      45.5052           1057  35544
      45.4279           1073  35576
      45.3508           1068  35608
      45.2739           1116  35640
      45.1972           1077  35672
      45.1207           1030  35704
      45.0445           1045  35736
      44.9684           1064  35768
      44.8926           1102  35800
      44.8169           1089  35832
      44.7415           1054  35864
      44.6662           1051  35896
      44.5912           1028  35928
      44.5163           1078  35960
      44.4417           1091  35992
      44.3673           1000  36024
       44.293            996  36056
       44.219           1007  36088
      44.1451           1050  36120
      44.0715           1050  36152
       43.998           1032  36184
      43.9248           1037  36216
      43.8517           1037  36248
      43.7788           1085  36280
      43.7061           1020  36312
      43.6336            966  36344
      43.5613            993  36376
      43.4892           1009  36408
      43.4173           1059  36440
      43.3456           1000  36472
      43.2741           1026  36504
      43.2027            953  36536
      43.1315           1002  36568
      43.0606           1019  36600
      42.9898            982  36632
      42.9192           1004  36664
      42.8488            948  36696
      42.7785           1031  36728
      42.7085           1030  36760
      42.6386            967  36792
      42.5689           1021  36824
      42.4994           1001  36856
      42.4301            989  36888
      42.3609           1021  36920
       42.292           1023  36952
      42.2232           1043  36984
      42.1546            996  37016
      42.0862            991  37048
      42.0179            965  37080
      41.9498           1027  37112
      41.8819           1009  37144
      41.8142           1002  37176
      41.7466            946  37208
      41.6793            998  37240
      41.6121            943  37272
       41.545           1002  37304
      41.4782            959  37336
      41.4115           1002  37368
       41.345            946  37400
      41.2786           1011  37432
      41.2125           1068  37464
      41.1465           1049  37496
      41.0806           1071  37528
      41.0149           1018  37560
      40.9494           1073  37592
      40.8841           1139  37624
      40.8189           1133  37656
      40.7539           1111  37688
      40.6891           1157  37720
      40.6244           1126  37752
      40.5599           1158  37784
      40.4956           1218  37816
      40.4314           1231  37848
      40.3674           1341  37880
      40.3035           1479  37912
      40.2398           1305  37944
      40.1763           1273  37976
      40.1129           1230  38008
      40.0497           1156  38040
      39.9866           1129  38072
      39.9237           1179  38104
       39.861           1161  38136
      39.7984           1216  38168
       39.736           1202  38200
      39.6737           1482  38232
      39.6116           1555  38264
      39.5496           1550  38296
      39.4878           1476  38328
      39.4262           1312  38360
      39.3647           1227  38392
      39.3033           1219  38424
      39.2421           1219  38456
      39.1811           1133  38488
      39.1202           1127  38520
      39.0595           1040  38552
      38.9989           1096  38584
      38.9384           1048  38616
      38.8781           1061  38648
       38.818           1092  38680
       38.758            948  38712
      38.6982            999  38744
      38.6385           1011  38776
      38.5789            950  38808
      38.5195            990  38840
      38.4603            918  38872
      38.4012            930  38904
      38.3422            912  38936
      38.2834            963  38968
      38.2247            860  39000
      38.1662            881  39032
      38.1078            900  39064
      38.0496            877  39096
      37.9915            854  39128
      37.9335            863  39160
      37.8757            940  39192
       37.818            834  39224
      37.7605            873  39256
      37.7031            847  39288
      37.6458            851  39320
      37.5887            903  39352
      37.5317            873  39384
      37.4749            910  39416
      37.4182            871  39448
      37.3616            929  39480
      37.3052            867  39512
      37.2489            904  39544
      37.1927            830  39576
      37.1367            874  39608
      37.0808            867  39640
       37.025            804  39672
      36.9694            806  39704
      36.9139            853  39736
      36.8586            878  39768
      36.8034            827  39800
      36.7483            883  39832
      36.6933            859  39864
      36.6385            843  39896
      36.5838            831  39928
      36.5293            854  39960
      36.4748            853  39992
      36.4205            805  40024
      36.3663            809  40056
      36.3123            787  40088
      36.2584            825  40120
      36.2046            886  40152
      36.1509            858  40184
      36.0974            838  40216
       36.044            870  40248
      35.9907            794  40280
      35.9376            798  40312
      35.8846            832  40344
      35.8317            832  40376
      35.7789            799  40408