[FileHeader]
Idn=THEX 1.0 for LINUX
Insert=A
Cell=C
p_Cell=300mB(RT)          
p_Heater=2E-2 mB (4K)       
T_Slope=0.000000
H_Field=0.000000
K0=6.048000
CalFile=NULL
SampleSensor=GaAs9356
HeaterSensor=9243
L0=1.740000
SampleID=YbGaGe E. Bauer AgSt=1.57mm erste Messung
;
StartTime=Wed May 26 18:22:53 2004
EndTime=Thu May 27 01:54:24 2004
NoofCols=5
DataPoints=20
ColID1=T [K]
ColID2=C [pF]
ColID3=Usens [V]
ColID4=t [s]
ColID5=Date [s]
#XMeas: CreationTime=Thu May 27 01:54:24 2004
@EOH
      4.6183       6.3767046       5.11284       1.1160000  1085588783
      4.8220       6.3766937       5.06992       206.27600  1085588989
      5.0244       6.3766842       5.02771       264.01600  1085589046
      5.2250       6.3766750       4.98647       321.69600  1085589104
      5.4291       6.3766659       4.94529       379.37600  1085589162
      5.6317       6.3766578       4.90534       435.93600  1085589218
      5.8333       6.3766510       4.86650       491.23700  1085589274
      6.0369       6.3766435       4.82809       547.82600  1085589330
      6.2389       6.3766367       4.79062       601.97700  1085589384
      6.4426       6.3766316       4.75332       657.84600  1085589440
      6.6463       6.3766261       4.71640       713.09600  1085589495
      6.8496       6.3766195       4.67988       768.39700  1085589551
      7.0532       6.3766145       4.64364       823.82700  1085589606
      7.2556       6.3766145       4.60798       879.13800  1085589661
      7.4579       6.3766045       4.57272       934.44600  1085589717
      7.6599       6.3766005       4.53789       989.75600  1085589772
      7.8612       6.3766005       4.50358       1044.9960  1085589827
      8.0630       6.3765928       4.46954       1100.2970  1085589883
      8.2641       6.3765893       4.43596       1155.6060  1085589938
      8.4645       6.3765859       4.40280       1210.9070  1085589993
