[FileHeader]
Idn=THEX 1.0 for LINUX
Insert=A
Cell=C
p_Cell=300 mB (RT)        
p_Heater=DiffP              
T_Slope=0.000000
H_Field=0.000000
K0=6.048000
CalFile=NULL
SampleSensor=GaAs9356
HeaterSensor=9243
L0=2.600000
SampleID=Silberstempel 2.60 mm CStart=4.78 pF
;
StartTime=Thu Jan  9 13:18:55 2003
EndTime=Fri Jan 10 04:41:21 2003
NoofCols=5
DataPoints=668
ColID1=T [K]
ColID2=C [pF]
ColID3=Usens [V]
ColID4=t [s]
ColID5=Date [s]
#XMeas: CreationTime=Fri Jan 10 04:41:21 2003
@EOH
20.277  4.7323710   2.80278  1.1040000  1042115578  
20.679  4.7323780   2.75848  154.62400  1042115732  
21.083  4.7323740   2.71449  226.57400  1042115804  
21.484  4.7323760   2.67161  291.65400  1042115869  
21.885  4.7323770   2.62931  356.95400  1042115934  
22.289  4.7323760   2.58739  424.36400  1042116001  
22.691  4.7323740   2.54639  492.88400  1042116070  
23.097  4.7323720   2.50580  563.70400  1042116141  
23.502  4.7323720   2.46603  635.67400  1042116213  
23.905  4.7323700   2.42724  708.79400  1042116286  
24.307  4.7323710   2.38935  783.05400  1042116360  
24.707  4.7323720   2.35232  858.46400  1042116436  
25.110  4.7323710   2.31575  936.14400  1042116513  
25.511  4.7323710   2.28019  1014.9440  1042116592  
25.915  4.7323710   2.24517  1095.1240  1042116672  
26.315  4.7323700   2.21126  1175.0940  1042116752  
26.717  4.7323670   2.17798  1257.2940  1042116834  
27.121  4.7323670   2.14532  1344.0940  1042116921  
27.524  4.7323680   2.11357  1433.2140  1042117010  
27.927  4.7323690   2.08273  1516.6140  1042117094  
28.332  4.7323690   2.05263  1596.6340  1042117174  
28.735  4.7323690   2.02349  1682.3340  1042117259  
29.140  4.7323690   1.99517  1773.7140  1042117351  
29.541  4.7323690   1.96797  1864.0140  1042117441  
29.941  4.7323720   1.94170  1954.2840  1042117531  
30.343  4.7323710   1.91622  2045.8640  1042117623  
30.747  4.7323640   1.89145  2138.4240  1042117715  
31.148  4.7323700   1.86771  2230.9550  1042117808  
31.551  4.7323760   1.84483  2323.4840  1042117901  
31.952  4.7323760   1.82291  2416.0640  1042117993  
32.356  4.7323710   1.80170  2509.7840  1042118087  
32.760  4.7323720   1.78142  2603.4840  1042118181  
33.164  4.7323700   1.76197  2697.2640  1042118274  
33.568  4.7323750   1.74340  2791.0640  1042118368  
33.971  4.7323760   1.72570  2884.8040  1042118462  
34.374  4.7323830   1.70886  2978.5440  1042118556  
34.777  4.7323870   1.69278  3073.5040  1042118651  
35.181  4.7323950   1.67748  3176.4240  1042118753  
35.586  4.7323920   1.66298  3277.0940  1042118854  
35.989  4.7323890   1.64930  3372.0240  1042118949  
36.395  4.7323870   1.63628  3463.6740  1042119041  
36.795  4.7323850   1.62412  3551.7540  1042119129  
37.196  4.7323850   1.61263  3636.4340  1042119213  
37.600  4.7323750   1.60173  3719.8940  1042119297  
38.004  4.7323770   1.59148  3803.3240  1042119380  
38.407  4.7323800   1.58185  3885.5850  1042119463  
38.813  4.7323840   1.57274  3964.4540  1042119541  
39.216  4.7323860   1.56428  4038.7140  1042119616  
39.620  4.7323870   1.55634  4112.9740  1042119690  
40.022  4.7323880   1.54896  4189.5040  1042119767  
40.425  4.7323900   1.54200  4270.6740  1042119848  
40.826  4.7323890   1.53554  4354.1540  1042119931  
41.229  4.7323920   1.52947  4439.9440  1042120017  
41.632  4.7323880   1.52383  4526.8440  1042120104  
42.035  4.7323970   1.51856  4616.0440  1042120193  
42.436  4.7323980   1.51367  4709.9940  1042120287  
42.836  4.7324030   1.50910  4809.5440  1042120387  
43.236  4.7324050   1.50485  4915.9540  1042120493  
43.638  4.7324070   1.50088  5028.0240  1042120605  
44.040  4.7324120   1.49718  5141.2740  1042120718  
44.442  4.7324050   1.49372  5254.6240  1042120832  
44.845  4.7324100   1.49048  5361.0240  1042120938  
45.249  4.7324000   1.48746  5459.3940  1042121036  
45.653  4.7324010   1.48465  5546.3340  1042121123  
46.053  4.7324060   1.48205  5622.9540  1042121200  
46.460  4.7324110   1.47958  5692.6540  1042121270  
46.870  4.7324150   1.47725  5759.0040  1042121336  
47.274  4.7324190   1.47510  5824.0940  1042121401  
47.680  4.7324250   1.47308  5889.2440  1042121466  
48.083  4.7324350   1.47120  5955.4940  1042121533  
48.487  4.7324420   1.46943  6025.1440  1042121602  
48.888  4.7324490   1.46777  6098.2740  1042121675  
49.288  4.7324520   1.46621  6173.6240  1042121751  
49.696  4.7324570   1.46471  6254.7040  1042121832  
50.104  4.7324620   1.46329  6339.5040  1042121917  
50.510  4.7324670   1.46195  6429.9940  1042122007  
50.913  4.7324700   1.46069  6523.8040  1042122101  
51.315  4.7324710   1.45949  6619.8540  1042122197  
51.716  4.7324740   1.45835  6718.1840  1042122295  
52.121  4.7324800   1.45725  6815.3840  1042122392  
52.525  4.7324840   1.45620  6915.9840  1042122493  
52.926  4.7324910   1.45520  7012.0040  1042122589  
53.326  4.7324980   1.45424  7109.1440  1042122686  
53.729  4.7325000   1.45331  7198.3640  1042122775  
54.130  4.7325100   1.45242  7288.7740  1042122866  
54.532  4.7325180   1.45156  7375.6140  1042122953  
54.932  4.7325290   1.45073  7456.7740  1042123034  
55.336  4.7325340   1.44992  7541.3740  1042123118  
55.737  4.7325440   1.44914  7622.5640  1042123200  
56.138  4.7325560   1.44838  7708.3240  1042123285  
56.545  4.7325680   1.44763  7791.7640  1042123369  
56.951  4.7325720   1.44690  7872.9340  1042123450  
57.355  4.7325850   1.44619  7958.6350  1042123536  
57.758  4.7325980   1.44550  8037.5040  1042123615  
58.163  4.7326080   1.44482  8123.2440  1042123700  
58.566  4.7326210   1.44416  8203.2340  1042123780  
58.970  4.7326330   1.44351  8289.0440  1042123866  
59.376  4.7326450   1.44287  8371.3840  1042123948  
59.782  4.7326560   1.44224  8454.7840  1042124032  
60.183  4.7326670   1.44163  8533.8640  1042124111  
60.583  4.7326800   1.44103  8616.2340  1042124193  
60.989  4.7326900   1.44043  8697.3740  1042124274  
61.395  4.7327030   1.43984  8777.4340  1042124354  
61.798  4.7327140   1.43926  8861.9840  1042124439  
62.200  4.7327260   1.43869  8938.5340  1042124516  
62.606  4.7327400   1.43812  9025.4940  1042124603  
63.009  4.7327510   1.43756  9103.2640  1042124680  
63.417  4.7327670   1.43700  9187.8540  1042124765  
63.828  4.7327720   1.43644  9266.7240  1042124844  
64.228  4.7327890   1.43590  9352.5440  1042124930  
64.631  4.7328040   1.43536  9432.5340  1042125010  
65.037  4.7328090   1.43482  9519.3540  1042125096  
65.447  4.7328230   1.43428  9599.4140  1042125176  
65.859  4.7328330   1.43374  9686.2750  1042125263  
66.266  4.7328480   1.43321  9767.4540  1042125344  
66.675  4.7328530   1.43268  9851.0040  1042125428  
67.087  4.7328640   1.43215  9932.1440  1042125509  
67.493  4.7328760   1.43163  10020.164  1042125597  
67.893  4.7328890   1.43112  10096.664  1042125674  
68.295  4.7328990   1.43061  10181.254  1042125758  
68.699  4.7329120   1.43010  10261.234  1042125838  
69.104  4.7329220   1.42959  10343.544  1042125921  
69.511  4.7329340   1.42908  10426.944  1042126004  
69.911  4.7329470   1.42858  10511.584  1042126089  
70.320  4.7329590   1.42807  10590.414  1042126167  
70.722  4.7329690   1.42757  10677.334  1042126254  
71.134  4.7329820   1.42706  10759.654  1042126337  
71.546  4.7329880   1.42655  10845.674  1042126423  
71.958  4.7330010   1.42604  10930.244  1042126507  
72.364  4.7330140   1.42554  11011.384  1042126588  
72.769  4.7330300   1.42504  11100.544  1042126678  
73.174  4.7330400   1.42454  11181.764  1042126759  
73.580  4.7330520   1.42404  11266.374  1042126843  
73.986  4.7330610   1.42354  11350.964  1042126928  
74.392  4.7330730   1.42304  11436.794  1042127014  
74.798  4.7330890   1.42254  11520.284  1042127097  
75.204  4.7331020   1.42204  11609.524  1042127187  
75.609  4.7331080   1.42154  11690.764  1042127268  
76.015  4.7331210   1.42104  11781.215  1042127358  
76.420  4.7331310   1.42054  11864.714  1042127442  
76.826  4.7331410   1.42004  11953.984  1042127531  
77.230  4.7331530   1.41954  12037.504  1042127615  
77.643  4.7331660   1.41903  12128.934  1042127706  
78.048  4.7331780   1.41853  12211.234  1042127788  
78.451  4.7331900   1.41803  12300.424  1042127877  
78.855  4.7332030   1.41753  12382.754  1042127960  
79.266  4.7332200   1.41702  12471.934  1042128049  
79.669  4.7332350   1.41652  12558.774  1042128136  
80.071  4.7332490   1.41602  12643.495  1042128221  
80.472  4.7332950   1.41552  12731.614  1042128309  
80.881  4.7332850   1.41501  12816.294  1042128393  
81.281  4.7332960   1.41451  12904.344  1042128481  
81.688  4.7333270   1.41400  12991.274  1042128568  
82.095  4.7333280   1.41349  13082.774  1042128660  
82.500  4.7333250   1.41298  13167.514  1042128745  
82.905  4.7333570   1.41247  13259.114  1042128836  
83.309  4.7333670   1.41196  13340.274  1042128917  
83.712  4.7333810   1.41145  13431.804  1042129009  
84.115  4.7333910   1.41094  13515.234  1042129092  
84.516  4.7334030   1.41043  13604.434  1042129181  
84.932  4.7334100   1.40990  13691.334  1042129268  
85.347  4.7334210   1.40937  13786.304  1042129363  
85.753  4.7334260   1.40885  13874.314  1042129451  
86.166  4.7334340   1.40832  13965.804  1042129543  
86.570  4.7334410   1.40780  14054.974  1042129632  
86.972  4.7334490   1.40728  14141.874  1042129719  
87.382  4.7334570   1.40675  14227.574  1042129805  
87.782  4.7334570   1.40623  14317.984  1042129895  
88.189  4.7334650   1.40570  14407.154  1042129984  
88.595  4.7334700   1.40517  14497.524  1042130075  
88.999  4.7334760   1.40464  14586.754  1042130164  
89.403  4.7334790   1.40411  14673.664  1042130251  
89.813  4.7334870   1.40357  14763.984  1042130341  
90.229  4.7334920   1.40302  14852.324  1042130429  
90.644  4.7334960   1.40247  14947.214  1042130524  
91.050  4.7334980   1.40193  15033.024  1042130610  
91.470  4.7335050   1.40137  15125.674  1042130703  
91.874  4.7335090   1.40083  15212.574  1042130790  
92.284  4.7335070   1.40028  15302.974  1042130880  
92.693  4.7335170   1.39973  15387.554  1042130965  
93.100  4.7335210   1.39918  15481.394  1042131058  
93.513  4.7335230   1.39862  15566.064  1042131143  
93.917  4.7335240   1.39807  15656.424  1042131233  
94.326  4.7335290   1.39751  15741.095  1042131318  
94.735  4.7335280   1.39695  15830.294  1042131407  
95.141  4.7335280   1.39639  15916.074  1042131493  
95.545  4.7335310   1.39583  16005.274  1042131582  
95.948  4.7335340   1.39527  16086.534  1042131664  
96.348  4.7335350   1.39471  16180.344  1042131757  
96.754  4.7335400   1.39414  16260.434  1042131837  
97.157  4.7335370   1.39357  16348.524  1042131926  
97.559  4.7335410   1.39300  16430.834  1042132008  
97.973  4.7335430   1.39241  16522.324  1042132099  
98.379  4.7335410   1.39183  16605.854  1042132183  
98.782  4.7335460   1.39125  16695.074  1042132272  
99.185  4.7335480   1.39067  16773.984  1042132351  
99.592  4.7335490   1.39008  16865.554  1042132443  
100.01  4.7335470   1.38948  16946.754  1042132524  
100.41  4.7335510   1.38889  17039.524  1042132617  
100.81  4.7335540   1.38830  17117.304  1042132694  
101.22  4.7335590   1.38770  17208.814  1042132786  
101.63  4.7335580   1.38711  17288.904  1042132866  
102.03  4.7335580   1.38651  17376.974  1042132954  
102.45  4.7335590   1.38590  17459.234  1042133036  
102.85  4.7335580   1.38530  17548.444  1042133125  
103.25  4.7335540   1.38470  17627.334  1042133204  
103.66  4.7335540   1.38410  17710.834  1042133288  
104.06  4.7335510   1.38350  17790.914  1042133368  
104.46  4.7335430   1.38289  17875.544  1042133453  
104.87  4.7335360   1.38228  17957.954  1042133535  
105.27  4.7335280   1.38167  18040.224  1042133617  
105.67  4.7335250   1.38106  18124.904  1042133702  
106.08  4.7335120   1.38045  18201.594  1042133779  
106.49  4.7335050   1.37982  18287.424  1042133864  
106.89  4.7334900   1.37920  18365.224  1042133942  
107.30  4.7334760   1.37858  18448.734  1042134026  
107.71  4.7334600   1.37795  18526.424  1042134103  
108.11  4.7334430   1.37732  18608.704  1042134186  
108.52  4.7334240   1.37668  18693.274  1042134270  
108.93  4.7334030   1.37605  18773.284  1042134350  
109.34  4.7333860   1.37541  18855.614  1042134433  
109.74  4.7333600   1.37478  18929.954  1042134507  
110.14  4.7333370   1.37414  19014.634  1042134592  
110.55  4.7333100   1.37349  19088.924  1042134666  
110.96  4.7332830   1.37285  19172.364  1042134749  
111.36  4.7332550   1.37221  19247.984  1042134825  
111.77  4.7332240   1.37155  19328.015  1042134905  
112.18  4.7331900   1.37089  19410.445  1042134987  
112.58  4.7331570   1.37024  19484.784  1042135062  
112.98  4.7331250   1.36959  19564.864  1042135142  
113.39  4.7330850   1.36893  19641.424  1042135218  
113.79  4.7330490   1.36827  19720.324  1042135297  
114.20  4.7330120   1.36760  19800.324  1042135377  
114.61  4.7329680   1.36693  19876.874  1042135454  
115.01  4.7329290   1.36626  19956.924  1042135534  
115.41  4.7328860   1.36559  20031.334  1042135608  
115.82  4.7328420   1.36491  20113.694  1042135691  
116.23  4.7327960   1.36423  20188.054  1042135765  
116.64  4.7327480   1.36354  20266.894  1042135844  
117.05  4.7326970   1.36285  20345.764  1042135923  
117.45  4.7326510   1.36217  20420.184  1042135997  
117.85  4.7326010   1.36148  20501.334  1042136078  
118.26  4.7325460   1.36079  20574.484  1042136152  
118.66  4.7324920   1.36010  20654.534  1042136232  
119.07  4.7324340   1.35940  20731.134  1042136308  
119.48  4.7323800   1.35869  20807.764  1042136385  
119.88  4.7323260   1.35799  20889.034  1042136466  
120.29  4.7322630   1.35729  20961.024  1042136538  
120.70  4.7322070   1.35657  21042.144  1042136619  
121.12  4.7321420   1.35584  21118.864  1042136696  
121.52  4.7320810   1.35513  21197.734  1042136775  
121.93  4.7320190   1.35440  21275.444  1042136852  
122.34  4.7319560   1.35368  21350.864  1042136928  
122.74  4.7318900   1.35296  21432.054  1042137009  
123.15  4.7318260   1.35224  21504.074  1042137081  
123.55  4.7317560   1.35152  21585.264  1042137162  
123.95  4.7316940   1.35080  21658.494  1042137236  
124.36  4.7316260   1.35007  21736.384  1042137313  
124.76  4.7315590   1.34934  21815.294  1042137392  
125.16  4.7314910   1.34861  21887.334  1042137464  
125.57  4.7314220   1.34787  21969.734  1042137547  
125.97  4.7313540   1.34713  22041.734  1042137619  
126.38  4.7312810   1.34639  22121.854  1042137699  
126.79  4.7312110   1.34563  22198.494  1042137776  
127.19  4.7311350   1.34488  22275.064  1042137852  
127.60  4.7310790   1.34413  22356.224  1042137933  
128.00  4.7309950   1.34338  22427.094  1042138004  
128.41  4.7309200   1.34262  22508.304  1042138085  
128.81  4.7308540   1.34186  22582.594  1042138160  
129.22  4.7307640   1.34110  22661.544  1042138239  
129.62  4.7306950   1.34034  22738.214  1042138315  
130.02  4.7306140   1.33958  22812.544  1042138390  
130.43  4.7305340   1.33881  22893.734  1042138471  
130.83  4.7304630   1.33804  22969.164  1042138546  
131.23  4.7303810   1.33727  23048.054  1042138625  
131.63  4.7303100   1.33650  23123.524  1042138701  
132.04  4.7302320   1.33572  23203.594  1042138781  
132.44  4.7301390   1.33494  23280.284  1042138857  
132.85  4.7300850   1.33416  23355.825  1042138933  
133.25  4.7300140   1.33338  23438.144  1042139015  
133.66  4.7299290   1.33258  23512.514  1042139090  
134.06  4.7298260   1.33178  23597.144  1042139174  
134.47  4.7297500   1.33099  23671.454  1042139248  
134.87  4.7296660   1.33019  23755.004  1042139332  
135.28  4.7295830   1.32938  23832.754  1042139410  
135.68  4.7295140   1.32858  23912.744  1042139490  
136.09  4.7294200   1.32778  23992.764  1042139570  
136.49  4.7293410   1.32697  24068.184  1042139645  
136.90  4.7292520   1.32616  24155.034  1042139732  
137.30  4.7291670   1.32534  24231.614  1042139809  
137.71  4.7290800   1.32453  24316.284  1042139893  
138.11  4.7290000   1.32372  24391.754  1042139969  
138.51  4.7289130   1.32289  24477.514  1042140055  
138.92  4.7288280   1.32207  24552.964  1042140130  
139.32  4.7287390   1.32125  24637.634  1042140215  
139.72  4.7286530   1.32042  24717.734  1042140295  
140.13  4.7285670   1.31959  24801.214  1042140378  
140.53  4.7284820   1.31876  24881.294  1042140458  
140.93  4.7283920   1.31793  24962.444  1042140539  
141.33  4.7283050   1.31710  25045.934  1042140623  
141.74  4.7282190   1.31625  25124.824  1042140702  
142.15  4.7281350   1.31540  25210.574  1042140788  
142.55  4.7280490   1.31456  25288.274  1042140865  
142.95  4.7279620   1.31372  25374.104  1042140951  
143.36  4.7278720   1.31287  25455.285  1042141032  
143.77  4.7277830   1.31200  25543.314  1042141120  
144.17  4.7276940   1.31115  25621.054  1042141198  
144.57  4.7276070   1.31030  25708.084  1042141285  
144.97  4.7275180   1.30944  25786.935  1042141364  
145.38  4.7274290   1.30858  25873.784  1042141451  
145.78  4.7273400   1.30772  25952.684  1042141530  
146.18  4.7272500   1.30686  26040.734  1042141618  
146.59  4.7271600   1.30599  26118.464  1042141695  
146.99  4.7270720   1.30512  26205.394  1042141782  
147.39  4.7269800   1.30425  26286.524  1042141864  
147.80  4.7268890   1.30337  26374.664  1042141952  
148.20  4.7267970   1.30248  26457.034  1042142034  
148.61  4.7267100   1.30160  26543.894  1042142121  
149.02  4.7266080   1.30071  26625.174  1042142202  
149.42  4.7265170   1.29983  26713.224  1042142290  
149.82  4.7264250   1.29895  26793.264  1042142370  
150.22  4.7263290   1.29806  26881.374  1042142458  
150.62  4.7262450   1.29717  26962.634  1042142540  
151.02  4.7261490   1.29628  27049.654  1042142627  
151.42  4.7260580   1.29539  27129.724  1042142707  
151.84  4.7259620   1.29447  27217.844  1042142795  
152.24  4.7258860   1.29356  27301.394  1042142878  
152.65  4.7257740   1.29266  27386.044  1042142963  
153.05  4.7256840   1.29175  27468.444  1042143045  
153.46  4.7255840   1.29084  27555.414  1042143132  
153.86  4.7255010   1.28993  27635.494  1042143213  
154.26  4.7254050   1.28902  27718.934  1042143296  
154.67  4.7253120   1.28810  27801.414  1042143378  
155.07  4.7252170   1.28719  27881.564  1042143459  
155.47  4.7251230   1.28627  27967.334  1042143544  
155.88  4.7250260   1.28534  28046.274  1042143623  
156.28  4.7249290   1.28442  28130.934  1042143708  
156.68  4.7248400   1.28350  28206.344  1042143783  
157.09  4.7247410   1.28256  28293.284  1042143870  
157.50  4.7246460   1.28161  28371.034  1042143948  
157.91  4.7245490   1.28067  28457.934  1042144035  
158.31  4.7244550   1.27973  28534.594  1042144112  
158.71  4.7243550   1.27880  28619.204  1042144196  
159.11  4.7242660   1.27786  28694.724  1042144272  
159.52  4.7241680   1.27692  28777.054  1042144354  
159.92  4.7240750   1.27598  28857.114  1042144434  
160.32  4.7239770   1.27503  28937.174  1042144514  
160.73  4.7238770   1.27408  29019.594  1042144597  
161.13  4.7237870   1.27313  29093.964  1042144671  
161.53  4.7236920   1.27218  29176.314  1042144753  
161.94  4.7235930   1.27123  29249.474  1042144827  
162.34  4.7234910   1.27028  29329.614  1042144907  
162.74  4.7234040   1.26931  29404.044  1042144981  
163.16  4.7233010   1.26833  29481.864  1042145059  
163.56  4.7231990   1.26736  29560.794  1042145138  
163.96  4.7231060   1.26640  29631.684  1042145209  
164.37  4.7230100   1.26544  29709.444  1042145286  
164.77  4.7229130   1.26448  29781.414  1042145358  
165.18  4.7228110   1.26349  29855.744  1042145433  
165.58  4.7227130   1.26251  29931.304  1042145508  
165.99  4.7226080   1.26154  30001.134  1042145578  
166.39  4.7225100   1.26056  30076.664  1042145654  
166.79  4.7224170   1.25959  30145.284  1042145722  
167.20  4.7223150   1.25859  30217.344  1042145794  
167.61  4.7222140   1.25760  30291.804  1042145869  
168.02  4.7221050   1.25661  30361.584  1042145939  
168.42  4.7220140   1.25563  30433.674  1042146011  
168.82  4.7219410   1.25465  30503.424  1042146080  
169.22  4.7218270   1.25367  30574.244  1042146151  
169.62  4.7217230   1.25268  30646.284  1042146223  
170.03  4.7216140   1.25168  30717.284  1042146294  
170.43  4.7215090   1.25069  30790.554  1042146368  
170.84  4.7214170   1.24969  30861.514  1042146439  
171.24  4.7213010   1.24869  30934.724  1042146512  
171.64  4.7211920   1.24770  31006.844  1042146584  
172.04  4.7211130   1.24670  31078.924  1042146656  
172.45  4.7210000   1.24570  31153.244  1042146730  
172.85  4.7208990   1.24469  31225.384  1042146802  
173.26  4.7207900   1.24369  31299.744  1042146877  
173.66  4.7206860   1.24268  31372.894  1042146950  
174.06  4.7205800   1.24167  31447.164  1042147024  
174.47  4.7204740   1.24066  31522.684  1042147100  
174.87  4.7203660   1.23965  31595.844  1042147173  
175.28  4.7202550   1.23862  31672.544  1042147250  
175.69  4.7201490   1.23759  31746.934  1042147324  
176.11  4.7200360   1.23655  31824.794  1042147402  
176.51  4.7199280   1.23554  31900.244  1042147477  
176.91  4.7198170   1.23452  31976.804  1042147554  
177.32  4.7197050   1.23348  32054.624  1042147632  
177.73  4.7195960   1.23246  32131.284  1042147708  
178.13  4.7194830   1.23143  32209.044  1042147786  
178.54  4.7193730   1.23041  32285.574  1042147863  
178.94  4.7192660   1.22938  32362.234  1042147939  
179.35  4.7191510   1.22835  32441.214  1042148018  
179.75  4.7190390   1.22732  32520.184  1042148097  
180.16  4.7189350   1.22629  32596.794  1042148174  
180.56  4.7188160   1.22526  32676.874  1042148254  
180.97  4.7187100   1.22422  32754.634  1042148332  
181.38  4.7185960   1.22317  32834.684  1042148412  
181.78  4.7184840   1.22214  32913.734  1042148491  
182.19  4.7183660   1.22109  32992.754  1042148570  
182.59  4.7182570   1.22006  33074.034  1042148651  
182.99  4.7181400   1.21903  33152.964  1042148730  
183.41  4.7180370   1.21797  33231.894  1042148809  
183.81  4.7178990   1.21694  33313.204  1042148890  
184.21  4.7178010   1.21590  33392.214  1042148969  
184.62  4.7177000   1.21485  33472.234  1042149049  
185.02  4.7175520   1.21381  33554.664  1042149132  
185.43  4.7174620   1.21275  33635.964  1042149213  
185.84  4.7173390   1.21171  33713.804  1042149291  
186.24  4.7172530   1.21067  33795.024  1042149372  
186.66  4.7171180   1.20958  33877.414  1042149454  
187.06  4.7170050   1.20854  33960.944  1042149538  
187.47  4.7168680   1.20749  34041.054  1042149618  
187.87  4.7167600   1.20645  34122.224  1042149699  
188.27  4.7166600   1.20540  34202.334  1042149779  
188.67  4.7165510   1.20436  34282.464  1042149860  
189.08  4.7164530   1.20331  34363.704  1042149941  
189.48  4.7163330   1.20225  34444.964  1042150022  
189.89  4.7162210   1.20120  34525.084  1042150102  
190.29  4.7161110   1.20015  34605.134  1042150182  
190.69  4.7160060   1.19910  34685.104  1042150262  
191.10  4.7158970   1.19804  34764.124  1042150341  
191.50  4.7157860   1.19699  34842.974  1042150420  
191.90  4.7156780   1.19593  34922.004  1042150499  
192.31  4.7155760   1.19488  34998.724  1042150576  
192.71  4.7154680   1.19383  35076.494  1042150654  
193.11  4.7153550   1.19278  35155.394  1042150732  
193.51  4.7152530   1.19173  35230.824  1042150808  
193.91  4.7151470   1.19067  35308.594  1042150886  
194.32  4.7150390   1.18960  35387.534  1042150965  
194.72  4.7149340   1.18854  35465.324  1042151042  
195.13  4.7148260   1.18748  35545.414  1042151122  
195.53  4.7147220   1.18642  35623.274  1042151200  
195.93  4.7146150   1.18536  35704.434  1042151281  
196.34  4.7145110   1.18429  35783.414  1042151360  
196.74  4.7144080   1.18322  35863.574  1042151441  
197.15  4.7143040   1.18214  35943.644  1042151521  
197.55  4.7141990   1.18108  36023.824  1042151601  
197.96  4.7140880   1.18001  36103.894  1042151681  
198.36  4.7139880   1.17895  36182.844  1042151760  
198.76  4.7138870   1.17789  36261.844  1042151839  
199.16  4.7137760   1.17683  36343.044  1042151920  
199.57  4.7136810   1.17576  36420.794  1042151998  
199.97  4.7135760   1.17469  36500.894  1042152078  
200.37  4.7134780   1.17363  36582.154  1042152159  
200.78  4.7133780   1.17255  36662.234  1042152239  
201.19  4.7132660   1.17145  36743.414  1042152320  
201.60  4.7131680   1.17037  36825.774  1042152403  
202.01  4.7130650   1.16928  36905.934  1042152483  
202.41  4.7129450   1.16821  36987.164  1042152564  
202.81  4.7128730   1.16714  37066.124  1042152643  
203.22  4.7127650   1.16606  37147.345  1042152724  
203.62  4.7126680   1.16499  37227.384  1042152804  
204.04  4.7125740   1.16388  37309.754  1042152887  
204.45  4.7124480   1.16279  37392.154  1042152969  
204.85  4.7123670   1.16171  37473.394  1042153050  
205.26  4.7122710   1.16062  37554.595  1042153132  
205.66  4.7121830   1.15955  37635.884  1042153213  
206.07  4.7120860   1.15847  37715.934  1042153293  
206.47  4.7119920   1.15739  37795.984  1042153373  
206.87  4.7118970   1.15632  37877.294  1042153454  
207.28  4.7118020   1.15524  37957.365  1042153534  
207.68  4.7117120   1.15417  38037.514  1042153615  
208.08  4.7116150   1.15309  38119.884  1042153697  
208.49  4.7115220   1.15200  38200.034  1042153777  
208.89  4.7114400   1.15092  38281.264  1042153858  
209.30  4.7113270   1.14983  38362.484  1042153940  
209.70  4.7112310   1.14874  38443.664  1042154021  
210.11  4.7111370   1.14766  38524.865  1042154102  
210.52  4.7110430   1.14656  38604.904  1042154182  
210.92  4.7109480   1.14548  38686.094  1042154263  
211.32  4.7108500   1.14440  38767.284  1042154344  
211.72  4.7107550   1.14332  38846.164  1042154423  
212.13  4.7106600   1.14224  38927.364  1042154504  
212.53  4.7105670   1.14116  39006.274  1042154583  
212.93  4.7104680   1.14007  39088.634  1042154666  
213.34  4.7103750   1.13897  39168.804  1042154746  
213.74  4.7102750   1.13789  39251.174  1042154828  
214.14  4.7101840   1.13681  39331.234  1042154908  
214.55  4.7100930   1.13573  39411.254  1042154988  
214.95  4.7099970   1.13465  39492.484  1042155070  
215.35  4.7099030   1.13357  39572.524  1042155150  
215.75  4.7098100   1.13249  39652.564  1042155230  
216.15  4.7097140   1.13141  39734.874  1042155312  
216.55  4.7096220   1.13032  39814.924  1042155392  
216.96  4.7095200   1.12922  39897.294  1042155474  
217.37  4.7094290   1.12812  39978.534  1042155556  
217.77  4.7093370   1.12703  40059.714  1042155637  
218.18  4.7092440   1.12592  40142.064  1042155719  
218.58  4.7091510   1.12483  40224.434  1042155801  
218.99  4.7090560   1.12374  40304.494  1042155882  
219.39  4.7089680   1.12265  40386.864  1042155964  
219.79  4.7088720   1.12156  40469.214  1042156046  
220.19  4.7087820   1.12047  40549.254  1042156126  
220.60  4.7086920   1.11937  40630.594  1042156208  
221.00  4.7085960   1.11828  40713.004  1042156290  
221.40  4.7085080   1.11719  40793.064  1042156370  
221.81  4.7084180   1.11610  40873.114  1042156450  
222.22  4.7083220   1.11499  40955.544  1042156533  
222.62  4.7082320   1.11389  41036.714  1042156614  
223.03  4.7081360   1.11279  41119.034  1042156696  
223.43  4.7080440   1.11170  41200.214  1042156777  
223.84  4.7079510   1.11059  41281.384  1042156858  
224.24  4.7078660   1.10950  41362.664  1042156940  
224.64  4.7077680   1.10841  41443.864  1042157021  
225.04  4.7076780   1.10732  41525.074  1042157102  
225.44  4.7075850   1.10622  41605.174  1042157182  
225.85  4.7074900   1.10513  41686.344  1042157263  
226.25  4.7074000   1.10402  41766.424  1042157343  
226.66  4.7073010   1.10292  41848.784  1042157426  
227.06  4.7072090   1.10183  41930.044  1042157507  
227.46  4.7071070   1.10074  42008.964  1042157586  
227.86  4.7070210   1.09965  42090.454  1042157667  
228.27  4.7069200   1.09854  42171.824  1042157749  
228.67  4.7068300   1.09744  42253.044  1042157830  
229.07  4.7067300   1.09634  42334.404  1042157911  
229.48  4.7066360   1.09523  42414.484  1042157992  
229.88  4.7065370   1.09413  42496.814  1042158074  
230.29  4.7064400   1.09303  42577.974  1042158155  
230.70  4.7063430   1.09191  42660.334  1042158237  
231.11  4.7062470   1.09079  42742.724  1042158320  
231.51  4.7061510   1.08968  42823.904  1042158401  
231.92  4.7060530   1.08858  42905.094  1042158482  
232.32  4.7059550   1.08747  42987.404  1042158564  
232.73  4.7058600   1.08636  43068.544  1042158646  
233.13  4.7057650   1.08526  43149.724  1042158727  
233.53  4.7056750   1.08416  43229.874  1042158807  
233.93  4.7055800   1.08306  43311.104  1042158888  
234.34  4.7054820   1.08194  43392.294  1042158969  
234.75  4.7053890   1.08082  43474.724  1042159052  
235.16  4.7052920   1.07971  43556.014  1042159133  
235.57  4.7051930   1.07859  43638.324  1042159215  
235.97  4.7050980   1.07749  43718.324  1042159295  
236.37  4.7050060   1.07639  43798.404  1042159375  
236.77  4.7049130   1.07529  43879.614  1042159457  
237.18  4.7048210   1.07417  43960.904  1042159538  
237.58  4.7047320   1.07306  44042.094  1042159619  
237.99  4.7046400   1.07194  44122.194  1042159699  
238.40  4.7045430   1.07083  44203.514  1042159781  
238.80  4.7044450   1.06972  44284.704  1042159862  
239.20  4.7043750   1.06861  44364.844  1042159942  
239.61  4.7042640   1.06750  44446.034  1042160023  
240.01  4.7041690   1.06639  44527.234  1042160104  
240.42  4.7040750   1.06528  44607.294  1042160184  
240.82  4.7039860   1.06418  44687.434  1042160264  
241.22  4.7038960   1.06307  44768.674  1042160346  
241.62  4.7037890   1.06196  44849.874  1042160427  
242.03  4.7037130   1.06085  44929.924  1042160507  
242.43  4.7036130   1.05974  45011.174  1042160588  
242.84  4.7035290   1.05862  45092.364  1042160669  
243.25  4.7034290   1.05749  45173.664  1042160751  
243.65  4.7033380   1.05638  45254.834  1042160832  
244.05  4.7032490   1.05527  45334.854  1042160912  
244.46  4.7031580   1.05416  45414.854  1042160992  
244.86  4.7030700   1.05304  45496.064  1042161073  
245.26  4.7029770   1.05193  45576.174  1042161153  
245.67  4.7028900   1.05082  45656.304  1042161233  
246.07  4.7027980   1.04971  45737.504  1042161315  
246.47  4.7027100   1.04860  45817.554  1042161395  
246.87  4.7026180   1.04749  45897.614  1042161475  
247.28  4.7025360   1.04638  45976.504  1042161554  
247.68  4.7024330   1.04526  46058.844  1042161636  
248.08  4.7023400   1.04415  46137.814  1042161715  
248.48  4.7022400   1.04304  46219.014  1042161796  
248.89  4.7021500   1.04192  46299.034  1042161876  
249.29  4.7020510   1.04081  46380.184  1042161957  
249.69  4.7019530   1.03970  46460.114  1042162037  
250.09  4.7018550   1.03859  46539.074  1042162116  
250.50  4.7017570   1.03746  46620.324  1042162197  
250.90  4.7016560   1.03635  46700.364  1042162277  
251.31  4.7015550   1.03523  46781.614  1042162359  
251.71  4.7014560   1.03411  46861.674  1042162439  
252.11  4.7013600   1.03300  46941.664  1042162519  
252.52  4.7012600   1.03188  47022.804  1042162600  
252.92  4.7011650   1.03076  47103.984  1042162681  
253.33  4.7010730   1.02964  47184.034  1042162761  
253.73  4.7009840   1.02853  47264.124  1042162841  
254.13  4.7008890   1.02742  47344.184  1042162921  
254.53  4.7008010   1.02629  47425.534  1042163003  
254.93  4.7007030   1.02518  47504.414  1042163081  
255.33  4.7006110   1.02407  47584.454  1042163161  
255.74  4.7005110   1.02295  47664.524  1042163242  
256.14  4.7004220   1.02183  47745.724  1042163323  
256.55  4.7003240   1.02069  47826.944  1042163404  
256.96  4.7002210   1.01957  47907.084  1042163484  
257.36  4.7001420   1.01844  47989.454  1042163566  
257.77  4.7000390   1.01731  48070.714  1042163648  
258.18  4.6999490   1.01618  48150.744  1042163728  
258.58  4.6998570   1.01505  48233.024  1042163810  
258.99  4.6997610   1.01391  48314.254  1042163891  
259.39  4.6996700   1.01279  48394.374  1042163971  
259.80  4.6995800   1.01165  48475.684  1042164053  
260.21  4.6994790   1.01051  48558.074  1042164135  
260.62  4.6993880   1.00937  48638.194  1042164215  
261.03  4.6992960   1.00824  48720.584  1042164298  
261.43  4.6992000   1.00712  48801.774  1042164379  
261.83  4.6990980   1.00600  48881.794  1042164459  
262.24  4.6990120   1.00487  48963.004  1042164540  
262.65  4.6989160   1.00373  49043.084  1042164620  
263.05  4.6988150   1.00261  49125.544  1042164703  
263.46  4.6987250   1.00147  49205.734  1042164783  
263.87  4.6986340   1.00034  49286.974  1042164864  
264.27  4.6985410  0.999210  49368.304  1042164945  
264.67  4.6984460  0.998090  49448.374  1042165025  
265.07  4.6983540  0.996970  49529.594  1042165107  
265.49  4.6982570  0.995820  49610.814  1042165188  
265.89  4.6981710  0.994700  49692.244  1042165269  
266.29  4.6980810  0.993570  49772.694  1042165350  
266.69  4.6979940  0.992450  49852.964  1042165430  
267.10  4.6979050  0.991320  49933.054  1042165510  
267.50  4.6978010  0.990190  50014.284  1042165591  
267.90  4.6977110  0.989070  50094.494  1042165672  
268.30  4.6976170  0.987950  50174.594  1042165752  
268.71  4.6975260  0.986820  50255.854  1042165833  
269.11  4.6974330  0.985700  50334.794  1042165912  
269.52  4.6973460  0.984550  50417.274  1042165994  
269.92  4.6972570  0.983430  50497.434  1042166074  
270.32  4.6971630  0.982310  50577.484  1042166155  
270.72  4.6970630  0.981180  50658.764  1042166236  
271.13  4.6969750  0.980050  50740.064  1042166317  
271.53  4.6968980  0.978930  50820.164  1042166397  
271.93  4.6968050  0.977790  50901.504  1042166479  
272.34  4.6967020  0.976650  50982.774  1042166560  
272.75  4.6966230  0.975520  51065.184  1042166642  
273.15  4.6965370  0.974390  51144.114  1042166721  
273.56  4.6964440  0.973230  51227.664  1042166805  
273.97  4.6963470  0.972100  51308.944  1042166886  
274.37  4.6962700  0.970970  51389.114  1042166966  
274.77  4.6961830  0.969840  51470.384  1042167047  
275.17  4.6960960  0.968710  51550.504  1042167128  
275.58  4.6960060  0.967580  51631.845  1042167209  
275.98  4.6959190  0.966450  51712.064  1042167289  
276.38  4.6958450  0.965320  51793.314  1042167370  
276.78  4.6957300  0.964190  51873.474  1042167451  
277.19  4.6956590  0.963060  51954.685  1042167532  
277.59  4.6955690  0.961920  52034.804  1042167612  
278.00  4.6954820  0.960780  52117.214  1042167694  
278.41  4.6953960  0.959620  52197.284  1042167774  
278.82  4.6953160  0.958480  52280.804  1042167858  
279.22  4.6952300  0.957350  52359.744  1042167937  
279.62  4.6951420  0.956210  52440.934  1042168018  
280.03  4.6950470  0.955080  52521.064  1042168098  
280.43  4.6949650  0.953950  52601.234  1042168178  
280.83  4.6948840  0.952820  52681.254  1042168258  
281.23  4.6947950  0.951690  52761.304  1042168338  
281.63  4.6947160  0.950560  52841.385  1042168418  
282.04  4.6946390  0.949420  52921.534  1042168499  
282.44  4.6945550  0.948280  53001.664  1042168579  
282.85  4.6944690  0.947140  53082.844  1042168660  
283.25  4.6943880  0.946010  53162.974  1042168740  
283.65  4.6943050  0.944870  53241.984  1042168819  
284.06  4.6942200  0.943720  53324.414  1042168901  
284.46  4.6941410  0.942580  53403.334  1042168980  
284.87  4.6940420  0.941430  53484.624  1042169062  
285.28  4.6939640  0.940270  53564.694  1042169142  
285.68  4.6938830  0.939140  53644.864  1042169222  
286.08  4.6938070  0.938010  53723.834  1042169301  
286.49  4.6937230  0.936870  53803.974  1042169381  
286.89  4.6936530  0.935740  53882.944  1042169460  
287.29  4.6935720  0.934610  53963.014  1042169540  
287.69  4.6934930  0.933470  54040.804  1042169618  
288.11  4.6934080  0.932300  54123.144  1042169700  
288.51  4.6933310  0.931160  54203.254  1042169780  
288.92  4.6932520  0.930010  54283.364  1042169860  
289.32  4.6931650  0.928870  54363.474  1042169941  
289.72  4.6930980  0.927730  54441.344  1042170018  
290.01  4.6930370  0.926910  54497.394  1042170074  
