[FileHeader]
Idn=File from XAusw for LINUX V 1.1: CreationTime=Wed Jun  2 17:04:37 2004
Insert=A
Cell=C
p_Cell=300mB(RT)          
p_Heater=2E-2 mB (4K)       
T_Slope=0.000000
H_Field=0.000000
K0=6.048000
CalFile=NULL
SampleSensor=GaAs9356
HeaterSensor=9243
L0=1.740000
SampleID=YbGaGe E. Bauer AgSt=1.57mm erste Messung
;
StartTime=Wed May 26 18:22:53 2004
EndTime=Thu May 27 01:54:24 2004
ColID1=T [K]
ColID2=Gap [m]
ColID3=Usens [V]
ColID4=t [s]
ColID5=Date [s]
NoofCols=5
DataPoints=470
#XMeas: CreationTime=Thu May 27 01:54:24 2004
@EOH
         4.6183   -0.00029764126          5.11284            1.116    1.0855888e+09  
          4.822   -0.00029745286          5.06992          206.276     1.085589e+09  
         5.0244   -0.00029728135          5.02771          264.016     1.085589e+09  
          5.225   -0.00029710531          4.98647          321.696    1.0855891e+09  
         5.4291   -0.00029693406          4.94529          379.376    1.0855892e+09  
         5.6317   -0.00029677092          4.90534          435.936    1.0855892e+09  
         5.8333   -0.00029661754           4.8665          491.237    1.0855893e+09  
         6.0369   -0.00029645672          4.82809          547.826    1.0855893e+09  
         6.2389   -0.00029630302          4.79062          601.977    1.0855894e+09  
         6.4426   -0.00029616599          4.75332          657.846    1.0855894e+09  
         6.6463   -0.00029601879           4.7164          713.096    1.0855895e+09  
         6.8496   -0.00029585852          4.67988          768.397    1.0855896e+09  
         7.0532   -0.00029571373          4.64364          823.827    1.0855896e+09  
         7.2556   -0.00029562798          4.60798          879.138    1.0855897e+09  
         7.4579   -0.00029541583          4.57272          934.446    1.0855897e+09  
         7.6599   -0.00029527343          4.53789          989.756    1.0855898e+09  
         7.8612   -0.00029518172          4.50358         1044.996    1.0855898e+09  
          8.063   -0.00029499003          4.46954         1100.297    1.0855899e+09  
         8.2641   -0.00029485161          4.43596         1155.606    1.0855899e+09  
         8.4645   -0.00029470776           4.4028         1210.907      1.08559e+09  
         8.6686   -0.00029456804          4.36933         1267.467      1.08559e+09  
         8.8717   -0.00029443912          4.33631         1324.026    1.0855901e+09  
         9.0739   -0.00029429084          4.30372         1380.577    1.0855902e+09  
         9.2753   -0.00029414431          4.27153         1437.136    1.0855902e+09  
         9.4795   -0.00029401354          4.23915         1494.877    1.0855903e+09  
         9.6826   -0.00029385387           4.2072         1552.567    1.0855903e+09  
          9.885    -0.0002937226          4.17562         1610.246    1.0855904e+09  
         10.089   -0.00029358142           4.1441         1669.107    1.0855905e+09  
         10.291   -0.00029341999          4.11296         1726.787    1.0855905e+09  
         10.492    -0.0002932879          4.08231         1784.476    1.0855906e+09  
         10.696   -0.00029314087          4.05143         1843.337    1.0855906e+09  
         10.899   -0.00029299418          4.02086         1902.146    1.0855907e+09  
         11.102   -0.00029286651          3.99056         1961.016    1.0855907e+09  
         11.305   -0.00029273492          3.96044         2019.886    1.0855908e+09  
         11.508   -0.00029258578          3.93063         2078.756    1.0855909e+09  
          11.71   -0.00029244104          3.90107         2137.697    1.0855909e+09  
         11.912   -0.00029229055          3.87168         2196.616     1.085591e+09  
         12.113   -0.00029217635          3.84263         2255.486     1.085591e+09  
         12.317   -0.00029202752          3.81345         2314.416    1.0855911e+09  
         12.519   -0.00029187365          3.78464         2373.286    1.0855912e+09  
         12.721   -0.00029172351          3.75606         2432.147    1.0855912e+09  
         12.922   -0.00029157416          3.72769         2491.016    1.0855913e+09  
         13.124    -0.0002914071          3.69942         2549.897    1.0855913e+09  
         13.326   -0.00029124238          3.67134         2608.816    1.0855914e+09  
         13.528   -0.00029108789          3.64346         2667.686    1.0855914e+09  
          13.73   -0.00029091982          3.61572         2726.567    1.0855915e+09  
         13.932   -0.00029075749          3.58811         2785.426    1.0855916e+09  
         14.135   -0.00029059951          3.56067         2844.356    1.0855916e+09  
         14.337   -0.00029043357          3.53339         2903.226    1.0855917e+09  
         14.539   -0.00029027151          3.50627         2962.087    1.0855917e+09  
         14.741   -0.00029010168          3.47931         3020.977    1.0855918e+09  
         14.944   -0.00028993086          3.45242         3079.887    1.0855919e+09  
         15.146   -0.00028975961          3.42575         3138.757    1.0855919e+09  
         15.349   -0.00028959032          3.39921         3197.626     1.085592e+09  
         15.551   -0.00028941374          3.37286         3256.496     1.085592e+09  
         15.755   -0.00028923886          3.34645         3315.366    1.0855921e+09  
         15.956   -0.00028907872          3.32065         3373.046    1.0855922e+09  
         16.159   -0.00028890242          3.29465         3431.916    1.0855922e+09  
         16.362   -0.00028871234          3.26889         3490.786    1.0855923e+09  
         16.564   -0.00028853146          3.24331         3549.647    1.0855923e+09  
         16.766   -0.00028834897          3.21792         3608.517    1.0855924e+09  
         16.969    -0.0002881653          3.19265         3667.386    1.0855924e+09  
         17.171   -0.00028797343          3.16753         3726.256    1.0855925e+09  
         17.373   -0.00028778561          3.14258         3785.126    1.0855926e+09  
         17.576   -0.00028759227          3.11777         3843.996    1.0855926e+09  
         17.778   -0.00028740456          3.09311         3902.867    1.0855927e+09  
         17.981   -0.00028720981          3.06866         3961.727    1.0855927e+09  
         18.183   -0.00028698854          3.04438         4020.596    1.0855928e+09  
         18.385   -0.00028676618          3.02026         4079.406    1.0855929e+09  
         18.588   -0.00028654298          2.99627         4138.276    1.0855929e+09  
          18.79   -0.00028633736          2.97248         4197.137     1.085593e+09  
         18.993   -0.00028610734          2.94881         4256.076     1.085593e+09  
         19.195   -0.00028589561          2.92535         4314.937    1.0855931e+09  
         19.397   -0.00028566047          2.90205         4373.807    1.0855932e+09  
           19.6   -0.00028542911          2.87889         4432.677    1.0855932e+09  
         19.803   -0.00028520282          2.85587         4491.617    1.0855933e+09  
         20.005   -0.00028497201          2.83307         4550.537    1.0855933e+09  
         20.208     -0.000284727          2.81045         4609.406    1.0855934e+09  
          20.41   -0.00028448935            2.788         4668.276    1.0855935e+09  
         20.612   -0.00028426736          2.76574         4727.146    1.0855935e+09  
         20.815   -0.00028401483          2.74361         4786.016    1.0855936e+09  
         21.017   -0.00028376282          2.72166         4844.886    1.0855936e+09  
         21.219   -0.00028350418          2.69992         4903.747    1.0855937e+09  
          21.42   -0.00028324728           2.6784         4962.556    1.0855937e+09  
         21.622   -0.00028299177            2.657         5021.486    1.0855938e+09  
         21.823   -0.00028270386          2.63576         5080.356    1.0855939e+09  
         22.024   -0.00028243151          2.61476         5139.226    1.0855939e+09  
         22.226   -0.00028216213          2.59388         5198.096     1.085594e+09  
         22.427   -0.00028190038          2.57322         5256.957     1.085594e+09  
         22.629   -0.00028162177           2.5527         5315.827    1.0855941e+09  
         22.831   -0.00028133794          2.53238         5374.696    1.0855942e+09  
         23.032   -0.00028108245          2.51223         5433.566    1.0855942e+09  
         23.234    -0.0002807896           2.4923         5492.436    1.0855943e+09  
         23.435   -0.00028052177          2.47256         5551.306    1.0855943e+09  
         23.637   -0.00028023594          2.45296         5610.236    1.0855944e+09  
         23.839   -0.00027993377          2.43359         5669.106    1.0855945e+09  
         24.041   -0.00027965147          2.41438         5727.967    1.0855945e+09  
         24.242   -0.00027934759          2.39538         5786.837    1.0855946e+09  
         24.444   -0.00027905878          2.37656         5845.706    1.0855946e+09  
         24.646   -0.00027875289          2.35791         5904.637    1.0855947e+09  
         24.847   -0.00027843915           2.3395         5963.507    1.0855947e+09  
         25.049   -0.00027813653          2.32124         6022.376    1.0855948e+09  
         25.251   -0.00027783904          2.30317         6081.246    1.0855949e+09  
         25.454   -0.00027753349          2.28523         6140.116    1.0855949e+09  
         25.657   -0.00027718654          2.26752         6198.986     1.085595e+09  
         25.858   -0.00027688092          2.25005         6257.786     1.085595e+09  
          26.06   -0.00027678062          2.23278         6316.656    1.0855951e+09  
         26.262   -0.00027646751           2.2157         6375.526    1.0855952e+09  
         26.464   -0.00027611417          2.19883         6434.396    1.0855952e+09  
         26.666   -0.00027581594          2.18216         6493.326    1.0855953e+09  
         26.868   -0.00027548595          2.16568         6552.196    1.0855953e+09  
          27.07   -0.00027513853          2.14939         6611.126    1.0855954e+09  
         27.273   -0.00027479447           2.1333         6669.927    1.0855955e+09  
         27.475   -0.00027446457          2.11738         6728.736    1.0855955e+09  
         27.679   -0.00027410239          2.10165         6787.606    1.0855956e+09  
         27.883   -0.00027376678          2.08609         6846.476    1.0855956e+09  
         28.087   -0.00027338906          2.07076         6905.337    1.0855957e+09  
          28.29    -0.0002730901          2.05572         6964.207    1.0855957e+09  
         28.492     -0.000272748          2.04095         7023.017    1.0855958e+09  
         28.693   -0.00027238576          2.02649         7081.886    1.0855959e+09  
         28.894   -0.00027200558           2.0123         7140.756    1.0855959e+09  
         29.094   -0.00027159681          1.99834         7199.617     1.085596e+09  
         29.298   -0.00027116066          1.98436         7257.426     1.085596e+09  
         29.498   -0.00027077678          1.97084         7313.917    1.0855961e+09  
         29.701   -0.00027037689          1.95735         7370.416    1.0855962e+09  
         29.901   -0.00027000911          1.94428         7424.536    1.0855962e+09  
         30.102   -0.00026960574          1.93139         7477.466    1.0855963e+09  
         30.305   -0.00026918675          1.91861         7530.396    1.0855963e+09  
         30.508   -0.00026877276          1.90601         7584.537    1.0855964e+09  
         30.709   -0.00026835266          1.89374         7641.076    1.0855964e+09  
          30.91   -0.00026790958          1.88167         7702.316    1.0855965e+09  
         31.114    -0.0002674687          1.86973         7770.686    1.0855966e+09  
         31.316   -0.00026530184          1.85808         7844.986    1.0855966e+09  
         31.516   -0.00026487009          1.84676         7921.666    1.0855967e+09  
         31.718   -0.00026441352          1.83559         7995.967    1.0855968e+09  
         31.923   -0.00026402122          1.82448         8058.336    1.0855968e+09  
         32.132   -0.00026363651          1.81338         8094.646    1.0855969e+09  
          32.34   -0.00026317885          1.80256         8121.456    1.0855969e+09  
         32.547   -0.00026269137          1.79199         8150.637    1.0855969e+09  
         32.753   -0.00026219742          1.78175         8184.576     1.085597e+09  
         32.956   -0.00026172601          1.77188         8225.636     1.085597e+09  
         33.156    -0.0002612672          1.76232         8277.376    1.0855971e+09  
         33.357   -0.00026082318          1.75299         8344.617    1.0855971e+09  
         33.559   -0.00026033491          1.74378         8429.607    1.0855972e+09  
          33.76   -0.00025989345          1.73488         8518.166    1.0855973e+09  
         33.962   -0.00025945386          1.72609         8592.466    1.0855974e+09  
         34.166   -0.00025888601          1.71744         8652.526    1.0855974e+09  
         34.369   -0.00025841019          1.70904         8707.827    1.0855975e+09  
         34.571   -0.00025787927          1.70089         8763.136    1.0855975e+09  
         34.772   -0.00025733311          1.69298         8819.627    1.0855976e+09  
         34.973   -0.00025677545          1.68528         8877.316    1.0855977e+09  
         35.175   -0.00025622411          1.67772         8936.177    1.0855977e+09  
         35.375    -0.0002555289          1.67044         8993.857    1.0855978e+09  
         35.577   -0.00025501256          1.66328         9051.546    1.0855978e+09  
         35.778   -0.00025448731          1.65638         9108.036    1.0855979e+09  
         35.982    -0.0002539664          1.64954         9165.716    1.0855979e+09  
         36.182   -0.00025340304          1.64302         9222.207     1.085598e+09  
         36.386   -0.00025299255          1.63656         9279.887    1.0855981e+09  
          36.59   -0.00025246893          1.63027         9337.576    1.0855981e+09  
         36.793   -0.00024960998          1.62416         9395.256    1.0855982e+09  
         36.994   -0.00024904166          1.61832         9451.807    1.0855982e+09  
         37.194   -0.00024842234          1.61266         9508.237    1.0855983e+09  
         37.395   -0.00024787245          1.60716         9564.736    1.0855983e+09  
         37.598   -0.00024718192          1.60178         9621.227    1.0855984e+09  
           37.8   -0.00024663982          1.59657         9677.726    1.0855985e+09  
             38   -0.00024614742          1.59157         9733.027    1.0855985e+09  
         38.201   -0.00024561666           1.5867         9788.276    1.0855986e+09  
         38.402   -0.00024509165          1.58197         9843.577    1.0855986e+09  
         38.607   -0.00024464461           1.5773         9900.076    1.0855987e+09  
         38.812   -0.00024404303          1.57278         9956.566    1.0855987e+09  
         39.013   -0.00024349429          1.56847        10011.936    1.0855988e+09  
         39.215   -0.00024293101          1.56431        10067.246    1.0855988e+09  
         39.417   -0.00024237923          1.56027        10122.557    1.0855989e+09  
          39.62   -0.00024177443          1.55635        10177.857     1.085599e+09  
         39.823   -0.00024117756          1.55255        10233.226     1.085599e+09  
         40.024   -0.00024059408          1.54891        10287.347    1.0855991e+09  
         40.225   -0.00023999062           1.5454        10341.466    1.0855991e+09  
         40.426   -0.00023941016          1.54198        10395.577    1.0855992e+09  
         40.629   -0.00023885045          1.53866        10449.697    1.0855992e+09  
         40.833   -0.00023824246          1.53543        10503.817    1.0855993e+09  
         41.034   -0.00023763531          1.53236        10556.747    1.0855993e+09  
         41.237   -0.00023703257          1.52936        10609.686    1.0855994e+09  
         41.441   -0.00023641857          1.52646        10662.556    1.0855994e+09  
         41.643   -0.00023571301          1.52368        10714.296    1.0855995e+09  
         41.845   -0.00023505816            1.521        10766.037    1.0855995e+09  
         42.046   -0.00023443239          1.51843        10817.846    1.0855996e+09  
          42.25   -0.00023372558          1.51589        10870.777    1.0855997e+09  
         42.452   -0.00023308199          1.51347        10922.586    1.0855997e+09  
         42.653   -0.00023235752          1.51115        10974.327    1.0855998e+09  
         42.855   -0.00023162738          1.50889        11027.266    1.0855998e+09  
         43.057   -0.00023092513          1.50672        11081.377    1.0855999e+09  
         43.257    -0.0002302008          1.50464        11135.497    1.0855999e+09  
         43.461   -0.00022950428           1.5026        11190.867       1.0856e+09  
         43.664   -0.00022877743          1.50063        11246.176       1.0856e+09  
         43.865   -0.00022804675          1.49876        11300.417    1.0856001e+09  
         44.068   -0.00022731895          1.49693        11354.536    1.0856001e+09  
         44.269   -0.00022660508          1.49518        11407.467    1.0856002e+09  
         44.472   -0.00022586156          1.49347        11461.587    1.0856002e+09  
         44.672   -0.00022569703          1.49184        11514.517    1.0856003e+09  
         44.876   -0.00022495795          1.49024        11568.637    1.0856004e+09  
         45.077   -0.00022415413          1.48872        11622.696    1.0856004e+09  
         45.279   -0.00022340407          1.48725        11676.816    1.0856005e+09  
          45.48   -0.00022266046          1.48583        11731.186    1.0856005e+09  
         45.683   -0.00022189975          1.48445        11785.306    1.0856006e+09  
         45.885     -0.000221149          1.48312        11838.236    1.0856006e+09  
         46.087   -0.00022040529          1.48184        11889.977    1.0856007e+09  
         46.287    -0.0002196557          1.48061        11939.347    1.0856007e+09  
         46.489   -0.00021888126          1.47941        11986.346    1.0856008e+09  
          46.69   -0.00021813716          1.47825        12034.526    1.0856008e+09  
         46.893   -0.00021734943          1.47712        12081.517    1.0856009e+09  
         47.096   -0.00021657341          1.47603        12129.706    1.0856009e+09  
         47.302   -0.00021575258          1.47496        12177.886     1.085601e+09  
         47.502   -0.00021501323          1.47395        12228.446     1.085601e+09  
         47.705   -0.00021418929          1.47296        12278.997    1.0856011e+09  
         47.909   -0.00021333533            1.472        12330.746    1.0856011e+09  
          48.11   -0.00021260448          1.47108        12384.866    1.0856012e+09  
          48.31   -0.00021182985          1.47019        12440.236    1.0856012e+09  
         48.512   -0.00021100503          1.46932        12497.916    1.0856013e+09  
         48.716   -0.00021017784          1.46847        12554.406    1.0856013e+09  
         48.918   -0.00020937668          1.46765        12612.086    1.0856014e+09  
         49.121   -0.00020858279          1.46685        12672.146    1.0856015e+09  
         49.325    -0.0002077489          1.46607        12729.886    1.0856015e+09  
         49.527   -0.00020695535          1.46532        12788.756    1.0856016e+09  
         49.735   -0.00020608479          1.46457        12846.497    1.0856016e+09  
          49.94   -0.00020524823          1.46385        12905.366    1.0856017e+09  
         50.143   -0.00020443867          1.46316        12964.236    1.0856017e+09  
         50.347   -0.00020357998          1.46248        13024.307    1.0856018e+09  
         50.548   -0.00020275004          1.46183        13084.346    1.0856019e+09  
         50.757   -0.00020185758          1.46117        13146.777    1.0856019e+09  
         50.959   -0.00020100202          1.46055        13210.377     1.085602e+09  
         51.162   -0.00020007386          1.45994        13275.207    1.0856021e+09  
         51.367   -0.00019919418          1.45934        13342.386    1.0856021e+09  
          51.57   -0.00019829333          1.45876        13410.747    1.0856022e+09  
          51.77   -0.00019741817           1.4582        13476.746    1.0856023e+09  
         51.975   -0.00019649168          1.45764        13545.107    1.0856023e+09  
         52.178    -0.0001956007           1.4571        13617.226    1.0856024e+09  
          52.38   -0.00019462297          1.45657        13690.346    1.0856025e+09  
         52.584    -0.0001937228          1.45605        13767.026    1.0856025e+09  
         52.787    -0.0001929204          1.45554        13837.766    1.0856026e+09  
         52.991   -0.00019199486          1.45504        13914.446    1.0856027e+09  
         53.195   -0.00019104111          1.45455        13989.936    1.0856028e+09  
         53.399   -0.00019006333          1.45407        14060.677    1.0856028e+09  
         53.602   -0.00018909942           1.4536        14132.606    1.0856029e+09  
         53.805   -0.00018816414          1.45314        14203.347     1.085603e+09  
         54.007   -0.00018713305          1.45269        14268.217    1.0856031e+09  
         54.208   -0.00018618017          1.45225        14330.647    1.0856031e+09  
         54.409   -0.00018523304          1.45182        14393.077    1.0856032e+09  
         54.613   -0.00018422443          1.45139        14450.757    1.0856032e+09  
         54.815   -0.00018325152          1.45097        14507.256    1.0856033e+09  
         55.016   -0.00018225672          1.45056        14557.817    1.0856033e+09  
          55.22   -0.00018127789          1.45015        14607.186    1.0856034e+09  
         55.422    -0.0001803051          1.44975        14654.176    1.0856034e+09  
         55.633   -0.00017924414          1.44934        14698.796    1.0856035e+09  
         55.836   -0.00017820523          1.44895        14739.856    1.0856035e+09  
         56.042   -0.00017718669          1.44856        14780.916    1.0856036e+09  
         56.245    -0.0001761193          1.44818        14819.596    1.0856036e+09  
         56.446   -0.00017506989          1.44781        14855.966    1.0856036e+09  
         56.649    -0.0001740089          1.44744        14894.836    1.0856037e+09  
         56.855    -0.0001729548          1.44707        14934.767    1.0856037e+09  
         57.058   -0.00017192159          1.44671        14973.456    1.0856038e+09  
         57.269   -0.00017067216          1.44634        15009.766    1.0856038e+09  
         57.471   -0.00016963212          1.44599        15048.506    1.0856038e+09  
         57.675   -0.00016852566          1.44564        15088.377    1.0856039e+09  
         57.876   -0.00016740951           1.4453        15125.876    1.0856039e+09  
         58.091   -0.00016618158          1.44494        15165.746    1.0856039e+09  
         58.309   -0.00016502673          1.44458        15211.556     1.085604e+09  
          58.51   -0.00016396225          1.44425        15254.986     1.085604e+09  
          58.72   -0.00016275092          1.44391        15298.416    1.0856041e+09  
         58.926   -0.00016156627          1.44358        15341.847    1.0856041e+09  
         59.127   -0.00016043867          1.44326        15387.656    1.0856042e+09  
         59.331   -0.00015922816          1.44294        15432.227    1.0856042e+09  
         59.536   -0.00015805587          1.44262        15480.396    1.0856043e+09  
         59.737   -0.00015691031          1.44231        15529.837    1.0856043e+09  
         59.939   -0.00015571476            1.442        15579.197    1.0856044e+09  
         60.143   -0.00015462821          1.44169        15632.136    1.0856044e+09  
         60.349   -0.00015332581          1.44138        15682.997    1.0856045e+09  
          60.55   -0.00015214219          1.44108        15739.496    1.0856045e+09  
         60.752   -0.00015087525          1.44078        15793.676    1.0856046e+09  
         60.955   -0.00014965582          1.44048        15851.356    1.0856046e+09  
         61.161   -0.00014838396          1.44018        15911.416    1.0856047e+09  
         61.367   -0.00014707867          1.43988        15970.286    1.0856048e+09  
         61.568   -0.00014586845          1.43959        16033.897    1.0856048e+09  
          61.77   -0.00014460557           1.4393        16096.327    1.0856049e+09  
         61.974   -0.00014329935          1.43901        16158.766    1.0856049e+09  
         62.179   -0.00014206809          1.43872        16230.687     1.085605e+09  
         62.385   -0.00014074343          1.43843        16297.867    1.0856051e+09  
         62.592   -0.00013935894          1.43814        16362.676    1.0856051e+09  
         62.793   -0.00013804807          1.43786        16428.667    1.0856052e+09  
         62.995    -0.0001367728          1.43758        16499.416    1.0856053e+09  
         63.198   -0.00013542128           1.4373        16570.156    1.0856054e+09  
         63.417     -0.000134005            1.437        16644.456    1.0856054e+09  
         63.622    -0.0001326429          1.43672        16713.947    1.0856055e+09  
         63.828   -0.00013133096          1.43644        16785.946    1.0856056e+09  
         64.035   -0.00012993027          1.43616        16853.126    1.0856056e+09  
         64.235   -0.00012859318          1.43589        16919.116    1.0856057e+09  
         64.437   -0.00012725196          1.43562        16985.106    1.0856058e+09  
         64.639    -0.0001258915          1.43535        17048.737    1.0856058e+09  
         64.841   -0.00012456513          1.43508        17113.536    1.0856059e+09  
         65.045   -0.00012316691          1.43481        17174.776     1.085606e+09  
         65.257   -0.00012166642          1.43453        17234.827     1.085606e+09  
          65.47   -0.00012020103          1.43425        17296.076    1.0856061e+09  
         65.683   -0.00011872975          1.43397        17356.196    1.0856061e+09  
         65.897   -0.00011725615          1.43369        17416.247    1.0856062e+09  
         66.104   -0.00011578634          1.43342        17471.556    1.0856063e+09  
         66.305   -0.00011437322          1.43316        17525.676    1.0856063e+09  
         66.505   -0.00011293624           1.4329        17578.606    1.0856064e+09  
         66.706    -0.0001115447          1.43264        17632.726    1.0856064e+09  
         66.916   -0.00010996658          1.43237        17683.286    1.0856065e+09  
         67.118   -0.00010855308          1.43211        17736.216    1.0856065e+09  
         67.321    -0.0001071149          1.43185        17790.336    1.0856066e+09  
          67.54   -0.00010547592          1.43157        17844.456    1.0856066e+09  
         67.744   -0.00010400229          1.43131        17898.577    1.0856067e+09  
         67.948   -0.00010246543          1.43105        17947.937    1.0856067e+09  
         68.153    -0.0001008921          1.43079        17998.497    1.0856068e+09  
         68.358   -9.9406067e-05          1.43053        18052.616    1.0856068e+09  
         68.564   -9.7828257e-05          1.43027        18103.176    1.0856069e+09  
         68.778   -9.6197557e-05             1.43        18158.477    1.0856069e+09  
         68.992   -9.4572607e-05          1.42973        18212.597     1.085607e+09  
         69.207   -9.2906667e-05          1.42946        18266.716     1.085607e+09  
         69.415   -9.1390187e-05           1.4292        18324.397    1.0856071e+09  
         69.622   -8.9731187e-05          1.42894        18374.896    1.0856072e+09  
         69.823   -8.8192517e-05          1.42869        18427.826    1.0856072e+09  
         70.023   -8.6606097e-05          1.42844        18477.196    1.0856073e+09  
         70.224   -8.5015977e-05          1.42819        18528.937    1.0856073e+09  
         70.424   -8.3466347e-05          1.42794        18581.867    1.0856074e+09  
         70.626   -8.1853947e-05          1.42769        18633.616    1.0856074e+09  
         70.827   -8.0402267e-05          1.42744        18690.107    1.0856075e+09  
         71.029   -7.8717957e-05          1.42719        18738.567    1.0856075e+09  
         71.239   -7.7010187e-05          1.42693        18792.847    1.0856076e+09  
         71.441   -7.5432397e-05          1.42668        18848.096    1.0856076e+09  
         71.643   -7.3774077e-05          1.42643        18898.647    1.0856077e+09  
         71.845   -7.2151237e-05          1.42618        18952.827    1.0856077e+09  
         72.048   -7.0437857e-05          1.42593        19002.266    1.0856078e+09  
         72.258   -6.8713697e-05          1.42567        19056.386    1.0856078e+09  
         72.469   -6.7000437e-05          1.42541        19111.686    1.0856079e+09  
         72.672   -6.5278547e-05          1.42516        19162.246    1.0856079e+09  
         72.874   -6.3583637e-05          1.42491        19213.987     1.085608e+09  
         73.085   -6.1818607e-05          1.42465        19268.106     1.085608e+09  
         73.304   -5.9968867e-05          1.42438        19324.606    1.0856081e+09  
         73.507   -5.8297377e-05          1.42413        19379.907    1.0856082e+09  
          73.71   -5.6542097e-05          1.42388        19429.276    1.0856082e+09  
         73.913   -5.4838527e-05          1.42363        19482.207    1.0856083e+09  
         74.116   -5.3132087e-05          1.42338        19536.327    1.0856083e+09  
         74.319   -5.1292727e-05          1.42313        19586.886    1.0856084e+09  
         74.522   -4.9595447e-05          1.42288        19641.006    1.0856084e+09  
         74.725   -4.7775747e-05          1.42263        19690.376    1.0856085e+09  
         74.928   -4.6030757e-05          1.42238        19743.306    1.0856085e+09  
          75.13   -4.4294657e-05          1.42213        19796.247    1.0856086e+09  
         75.358   -4.2232937e-05          1.42185        19851.546    1.0856086e+09  
         75.561   -4.0463337e-05           1.4216        19904.497    1.0856087e+09  
         75.763   -3.8753797e-05          1.42135        19959.786    1.0856087e+09  
         75.966   -3.6887977e-05           1.4211        20009.156    1.0856088e+09  
         76.177   -3.5075597e-05          1.42084        20065.646    1.0856088e+09  
          76.38   -3.3333637e-05          1.42059        20120.956    1.0856089e+09  
         76.582   -3.1443617e-05          1.42034        20170.386     1.085609e+09  
         76.785   -2.9572927e-05          1.42009        20219.756     1.085609e+09  
         76.988   -2.7811437e-05          1.41984        20276.246    1.0856091e+09  
          77.19   -2.5992537e-05          1.41959        20329.177    1.0856091e+09  
         77.401   -2.4045967e-05          1.41933        20382.116    1.0856092e+09  
         77.603   -2.2219547e-05          1.41908        20435.046    1.0856092e+09  
         77.805   -2.0357897e-05          1.41883        20486.786    1.0856093e+09  
         78.015   -1.8478407e-05          1.41857        20543.286    1.0856093e+09  
         78.217   -1.6598067e-05          1.41832        20595.026    1.0856094e+09  
         78.419   -1.4700497e-05          1.41807        20645.586    1.0856094e+09  
         78.621   -1.2915997e-05          1.41782        20703.266    1.0856095e+09  
         78.831   -1.0901607e-05          1.41756        20755.006    1.0856095e+09  
         79.032   -9.0713268e-06          1.41731        20809.126    1.0856096e+09  
         79.242   -7.1187168e-06          1.41705        20865.626    1.0856096e+09  
         79.443   -5.2377968e-06           1.4168        20918.556    1.0856097e+09  
         79.644   -3.3251968e-06          1.41655        20970.296    1.0856098e+09  
         79.846   -1.4305068e-06           1.4163        21024.416    1.0856098e+09  
         80.047    4.3658323e-07          1.41605        21082.096    1.0856099e+09  
         80.247    2.4145332e-06           1.4158        21130.277    1.0856099e+09  
         80.448    4.2734832e-06          1.41555        21186.776      1.08561e+09  
         80.648    6.1335632e-06           1.4153        21242.146      1.08561e+09  
         80.849    8.0616232e-06          1.41505        21295.136    1.0856101e+09  
         81.049    9.9964432e-06           1.4148        21346.877    1.0856101e+09  
         81.257    1.1994553e-05          1.41454        21402.187    1.0856102e+09  
         81.472    1.4034093e-05          1.41427        21461.056    1.0856102e+09  
          81.68    1.5950233e-05          1.41401        21521.116    1.0856103e+09  
         81.895    1.8047683e-05          1.41374        21577.606    1.0856104e+09  
         82.103    2.0097393e-05          1.41348        21631.726    1.0856104e+09  
         82.309    2.2056983e-05          1.41322        21689.346    1.0856105e+09  
         82.516    2.4065323e-05          1.41296        21744.647    1.0856105e+09  
         82.739    2.6224613e-05          1.41268        21805.896    1.0856106e+09  
         82.945    2.8195113e-05          1.41242        21863.636    1.0856106e+09  
         83.151    3.0253903e-05          1.41216        21917.817    1.0856107e+09  
         83.357    3.2212113e-05           1.4119        21976.686    1.0856108e+09  
          83.57    3.4354733e-05          1.41163        22031.996    1.0856108e+09  
         83.776    3.6375063e-05          1.41137        22088.486    1.0856109e+09  
         83.981    3.8358843e-05          1.41111        22147.417    1.0856109e+09  
         84.193    4.0481653e-05          1.41084        22202.726     1.085611e+09  
         84.398    4.2446813e-05          1.41058        22262.777     1.085611e+09  
         84.602    4.4489493e-05          1.41032        22319.276    1.0856111e+09  
         84.807    4.6545043e-05          1.41006        22374.586    1.0856112e+09  
          85.01    4.8573723e-05           1.4098        22427.576    1.0856112e+09  
         85.214    5.0538973e-05          1.40954        22487.696    1.0856113e+09  
         85.417    5.2565233e-05          1.40928        22545.376    1.0856113e+09  
         85.628    5.4753103e-05          1.40901        22601.867    1.0856114e+09  
         85.831    5.6736973e-05          1.40875        22660.736    1.0856114e+09  
         86.034    5.8762593e-05          1.40849        22717.236    1.0856115e+09  
         86.236    6.0827983e-05          1.40823        22771.476    1.0856116e+09  
         86.438    6.2778433e-05          1.40797        22831.536    1.0856116e+09  
         86.647    6.4952673e-05           1.4077        22885.647    1.0856117e+09  
         86.856    6.6991683e-05          1.40743        22945.706    1.0856117e+09  
         87.057    6.8985533e-05          1.40717        23003.386    1.0856118e+09  
         87.266    7.1142683e-05           1.4069        23059.886    1.0856118e+09  
         87.474    7.3257193e-05          1.40663        23116.376    1.0856119e+09  
          87.69    7.5450563e-05          1.40635        23177.677     1.085612e+09  
         87.897    7.7450613e-05          1.40608        23242.497     1.085612e+09  
         88.104    7.9610033e-05          1.40581        23301.606    1.0856121e+09  
         88.311    8.1675953e-05          1.40554        23361.657    1.0856121e+09  
         88.518    8.3736813e-05          1.40527        23422.906    1.0856122e+09  
         88.725    8.5948823e-05            1.405        23478.207    1.0856123e+09  
         88.931    8.7945663e-05          1.40473        23543.016    1.0856123e+09  
         89.136    9.0065923e-05          1.40446        23600.767    1.0856124e+09  
         89.349    9.2278313e-05          1.40418        23659.627    1.0856124e+09  
         89.555    9.4377123e-05          1.40391        23719.686    1.0856125e+09  
          89.76    9.6484743e-05          1.40364        23778.556    1.0856126e+09  
         89.972    9.8673783e-05          1.40336        23838.607    1.0856126e+09  
         90.184    0.00010084656          1.40308        23899.856    1.0856127e+09  
         90.387    0.00010288745          1.40281        23961.096    1.0856127e+09  
         90.591    0.00010505489          1.40254        24016.526    1.0856128e+09  
         90.795    0.00010715736          1.40227        24075.396    1.0856129e+09  
         91.005    0.00010935651          1.40199        24137.826    1.0856129e+09  
         91.208    0.00011146911          1.40172        24196.756     1.085613e+09  
         91.418    0.00011365813          1.40144        24256.816     1.085613e+09  
          91.62    0.00011574333          1.40117        24316.867    1.0856131e+09  
         91.822    0.00011783129           1.4009        24376.926    1.0856132e+09  
         92.023    0.00011994024          1.40063        24434.606    1.0856132e+09  
         92.224     0.0001219976          1.40036        24495.916    1.0856133e+09  
         92.433    0.00012420932          1.40008        24555.966    1.0856133e+09  
         92.641    0.00012641701           1.3998        24616.026    1.0856134e+09  
         92.841    0.00012844921          1.39953        24678.516    1.0856135e+09  
         93.048    0.00013062322          1.39925        24739.757    1.0856135e+09  
         93.255    0.00013283667          1.39897        24798.696    1.0856136e+09  
         93.461    0.00013497257          1.39869        24862.316    1.0856136e+09  
         93.667      0.000137148          1.39841        24923.556    1.0856137e+09  
         93.873     0.0001393476          1.39813        24983.676    1.0856138e+09  
         94.078    0.00014153513          1.39785        25043.726    1.0856138e+09  
          94.29    0.00014377538          1.39756        25107.346    1.0856139e+09  
         94.502    0.00014603869          1.39727        25169.776     1.085614e+09  
         94.713     0.0001482591          1.39698        25234.586     1.085614e+09  
         94.916    0.00015038141           1.3967        25298.266    1.0856141e+09  
         95.119    0.00015256449          1.39642        25358.316    1.0856141e+09  
         95.322    0.00015472117          1.39614        25420.747    1.0856142e+09  
         95.524    0.00015685829          1.39586        25483.177    1.0856143e+09  
         95.725    0.00015902027          1.39558        25544.426    1.0856143e+09  
         95.926    0.00016117074           1.3953        25606.787    1.0856144e+09  
         96.127    0.00016335905          1.39502        25665.657    1.0856144e+09  
         96.327    0.00016552332          1.39474        25728.087    1.0856145e+09  
         96.533     0.0001678444          1.39445        25789.336    1.0856146e+09  
         96.739    0.00017007793          1.39416        25852.956    1.0856146e+09  
         96.945    0.00017226548          1.39387        25920.136    1.0856147e+09  
          97.15    0.00017456869          1.39358        25978.997    1.0856148e+09  
         97.362    0.00017689466          1.39328        26044.996    1.0856148e+09  
         97.573    0.00017924233          1.39298        26107.426    1.0856149e+09  
         97.777    0.00018145686          1.39269        26173.416     1.085615e+09  
          97.98    0.00018365106           1.3924        26238.226     1.085615e+09  
         98.183    0.00018595302          1.39211        26299.406    1.0856151e+09  
         98.386    0.00018820373          1.39182        26362.956    1.0856151e+09  
         98.588    0.00019045911          1.39153        26426.576    1.0856152e+09  
         98.789    0.00019266226          1.39124        26489.067    1.0856153e+09  
         98.991    0.00019495475          1.39095        26550.316    1.0856153e+09  
         99.192     0.0001971622          1.39066        26616.317    1.0856154e+09  
         99.392    0.00019940693          1.39037        26677.547    1.0856155e+09  
         99.592    0.00020163644          1.39008        26739.916    1.0856155e+09  
         99.799    0.00020396521          1.38978        26804.726    1.0856156e+09  
         100.01    0.00020640458          1.38947        26868.337    1.0856157e+09  
         100.03    0.00020662359          1.38944        26874.936    1.0856157e+09  
